time	FP1	FP2	F7	F3	FZ	F4	F8	FT7	FC3	FCZ	FC4	FT8	T7	C3	CZ	C4	T8	M1	TP7	CP3	CPZ	CP4	TP8	M2	P7	P3	PZ	P4	P8	O1	OZ	O2	HEO	VEO	
-200.000000	-0.623210	-0.467381	-0.013669	-0.257240	-0.421827	0.074016	0.526025	0.011794	-0.082697	-0.388109	-0.688340	1.223864	-0.006760	-0.170664	-0.452692	-1.155156	1.381271	0.265892	0.020389	-0.083554	-0.596787	-0.701710	0.094825	1.375617	0.023404	-0.182666	-0.676359	-0.472203	0.859667	0.311218	0.483342	0.789699	-0.604847	1.467788
-199.000000	-0.589891	-0.189070	-0.071352	-0.225142	-0.335500	-0.038455	0.479505	-0.039369	-0.013881	-0.328285	-0.615377	1.071688	-0.065718	-0.048892	-0.331153	-0.812266	1.085957	0.071799	-0.004974	0.042990	-0.500753	-0.393402	-0.233267	1.141492	-0.002267	-0.120782	-0.590374	-0.364401	0.394983	0.371901	0.459864	0.794395	-0.416892	1.326478
-198.000000	-0.616682	-0.101554	-0.111413	-0.194348	-0.263940	-0.129151	0.394140	-0.073416	0.056019	-0.253297	-0.497269	0.900819	-0.105745	0.036557	-0.222303	-0.461801	1.001639	-0.129952	-0.035193	0.112142	-0.418947	-0.011816	-0.148583	0.689131	-0.039335	-0.112488	-0.500677	-0.048586	-0.142096	0.390702	0.375984	0.661462	-0.408330	1.292519
-197.000000	-0.706586	-0.191837	-0.162546	-0.200782	-0.215937	-0.181442	0.298827	-0.128643	0.092605	-0.188415	-0.348166	0.800833	-0.159303	0.060340	-0.133166	-0.134058	1.193192	-0.331697	-0.122708	0.122090	-0.343451	0.385078	0.056095	0.239317	-0.118040	-0.126106	-0.424882	0.490061	-0.591952	0.356254	0.248198	0.466829	-0.552115	1.364976
-196.000000	-0.795849	-0.396261	-0.279618	-0.176543	-0.178624	-0.156108	0.204443	-0.271354	0.113539	-0.126219	-0.129318	0.695158	-0.304138	0.077194	-0.046427	0.248373	1.460591	-0.476277	-0.324498	0.110572	-0.272352	0.692146	0.187968	0.054651	-0.289587	-0.130095	-0.383167	0.869167	-0.718026	0.282558	0.128915	0.329187	-0.658699	1.517701
-195.000000	-0.804758	-0.647056	-0.449511	-0.100943	-0.137693	-0.083477	0.051384	-0.471752	0.163360	-0.030064	0.224553	0.470205	-0.512865	0.167767	0.063699	0.770492	1.502875	-0.406729	-0.579527	0.166640	-0.204782	0.749976	0.161070	0.135945	-0.518277	-0.033135	-0.361009	0.696496	-0.488753	0.229580	0.058210	0.218081	-0.538284	1.732244
-194.000000	-0.734659	-0.909894	-0.532930	-0.039401	-0.123530	-0.111321	-0.158358	-0.553513	0.245513	0.054102	0.535048	0.262076	-0.589897	0.349528	0.171521	1.219867	1.238024	-0.072366	-0.689656	0.309885	-0.142527	0.543855	-0.232127	0.267540	-0.623013	0.137734	-0.322451	0.215375	-0.130445	0.235311	0.064833	0.115876	-0.258123	1.953148
-193.000000	-0.638868	-1.144240	-0.404288	-0.067400	-0.180961	-0.246094	-0.276017	-0.404146	0.298627	0.047689	0.564359	0.226602	-0.412963	0.535308	0.214776	1.183764	0.852970	0.395538	-0.520831	0.420198	-0.116742	0.211653	-1.013520	0.414744	-0.460455	0.203093	-0.272535	-0.168726	0.174285	0.294246	0.167449	0.122484	0.009038	2.120014
-192.000000	-0.586326	-1.305792	-0.129447	-0.181978	-0.300475	-0.366546	-0.311565	-0.123527	0.270857	-0.014918	0.442304	0.217817	-0.091829	0.602215	0.194818	0.796510	0.531611	0.781813	-0.198639	0.431903	-0.103576	-0.037754	-1.779798	0.608601	-0.147053	0.149214	-0.220494	-0.347649	0.364365	0.351208	0.298400	0.205731	0.337657	2.227312
-191.000000	-0.592165	-1.330162	0.146850	-0.286875	-0.436269	-0.404817	-0.278195	0.151340	0.154480	-0.077756	0.248391	0.247157	0.213002	0.452212	0.126987	0.347321	0.391821	0.972726	0.107212	0.344181	-0.093448	-0.202273	-2.022957	0.786255	0.139100	0.071715	-0.189769	-0.400592	0.417354	0.365146	0.377664	0.254366	0.691171	2.294074
-190.000000	-0.619278	-1.178337	0.333190	-0.339833	-0.557555	-0.400383	-0.076928	0.350274	-0.018599	-0.147926	-0.105176	0.423767	0.413688	0.129237	0.023262	-0.185745	0.415840	1.052130	0.348723	0.194453	-0.126801	-0.410080	-1.581361	0.883447	0.350853	0.027708	-0.206793	-0.424552	0.398017	0.381361	0.415079	0.238319	0.712803	2.312558
-189.000000	-0.642004	-0.967195	0.416469	-0.374854	-0.655236	-0.464843	0.156036	0.456947	-0.198179	-0.226063	-0.467656	0.571175	0.493435	-0.177139	-0.061975	-0.636152	0.396934	1.156888	0.509870	0.061530	-0.173959	-0.562005	-0.761572	0.859946	0.491342	0.042307	-0.245321	-0.404844	0.430681	0.403622	0.426381	0.145431	0.408386	2.292596
-188.000000	-0.632392	-0.836473	0.463317	-0.401776	-0.716869	-0.610722	0.187436	0.502376	-0.325997	-0.295672	-0.658055	0.525776	0.516174	-0.339733	-0.117374	-0.839252	0.239621	1.351135	0.591213	-0.016373	-0.208135	-0.569254	-0.002225	0.814519	0.578599	0.075414	-0.277628	-0.333371	0.523476	0.394747	0.401025	0.016469	0.226060	2.244415
-187.000000	-0.586611	-0.731632	0.499620	-0.398875	-0.713492	-0.773809	0.053440	0.509585	-0.361380	-0.340120	-0.677292	0.336237	0.523155	-0.348476	-0.171415	-0.895441	0.062620	1.598472	0.592863	-0.033659	-0.248235	-0.541454	0.569983	0.792178	0.609204	0.089416	-0.292642	-0.277758	0.524452	0.370368	0.338628	-0.077929	0.422802	2.164831
-186.000000	-0.568568	-0.595593	0.465859	-0.381617	-0.638286	-0.893012	-0.128803	0.460386	-0.325581	-0.339862	-0.572953	0.087989	0.476633	-0.216159	-0.210187	-0.896642	-0.014371	1.822510	0.514230	0.017094	-0.279319	-0.538837	1.162722	0.690757	0.549657	0.099906	-0.285200	-0.276666	0.372242	0.339426	0.243866	-0.141621	0.827787	2.063033
-185.000000	-0.602460	-0.520453	0.378558	-0.329240	-0.512754	-0.879746	-0.322043	0.373197	-0.209769	-0.283840	-0.452464	-0.125343	0.384619	0.077773	-0.206064	-0.897037	-0.086657	1.871223	0.404952	0.150661	-0.277897	-0.523020	1.814283	0.493817	0.422450	0.120854	-0.275006	-0.303930	0.194969	0.254016	0.105277	-0.238924	1.008476	1.823109
-184.000000	-0.593480	-0.524486	0.362616	-0.170978	-0.339399	-0.695729	-0.452961	0.357165	-0.022592	-0.183098	-0.444755	-0.180787	0.345145	0.426037	-0.166248	-0.907197	-0.309884	1.644455	0.362923	0.311635	-0.257446	-0.509623	2.123146	0.304891	0.343174	0.131441	-0.278669	-0.362317	0.074186	0.105487	-0.072507	-0.420144	0.704467	1.385470
-183.000000	-0.464339	-0.564174	0.409877	0.002225	-0.143248	-0.429239	-0.552014	0.409517	0.086624	-0.065238	-0.414194	-0.200753	0.360421	0.553933	-0.110400	-0.720213	-0.526465	1.335739	0.392174	0.379807	-0.225276	-0.480659	1.803255	0.165711	0.355260	0.115308	-0.273619	-0.420870	-0.000241	0.005424	-0.195240	-0.589098	0.255575	0.994652
-182.000000	-0.285891	-0.654363	0.398720	0.045521	0.024047	-0.237030	-0.709908	0.398136	0.039466	0.047622	-0.132306	-0.449234	0.335355	0.392132	-0.027192	-0.109583	-0.586673	1.097062	0.392717	0.321461	-0.160117	-0.281336	1.063725	-0.013002	0.370823	0.091725	-0.228810	-0.353629	-0.033442	0.032229	-0.188517	-0.599707	0.147930	0.830274
-181.000000	-0.155064	-0.779095	0.344098	0.006541	0.125739	-0.198272	-0.820641	0.331057	-0.065928	0.110106	0.210062	-0.777255	0.286584	0.099024	0.043560	0.630701	-0.486592	0.873294	0.356821	0.181835	-0.111139	0.048248	0.303989	-0.158254	0.356157	0.055680	-0.168993	-0.181653	-0.037499	0.123348	-0.097712	-0.448748	0.288641	0.770560
-180.000000	-0.066073	-0.959240	0.337703	0.005026	0.141624	-0.254353	-0.788305	0.316893	-0.139997	0.082281	0.261034	-0.852500	0.295120	-0.170370	0.015441	0.920209	-0.182139	0.752211	0.347545	0.005223	-0.157858	0.212437	-0.113747	-0.098902	0.348851	-0.032211	-0.142159	-0.067882	0.004126	0.191577	0.009067	-0.220630	0.470776	0.738983
-179.000000	-0.028773	-1.187561	0.383186	0.031049	0.095644	-0.271234	-0.673628	0.364910	-0.168782	0.002997	0.083009	-0.669413	0.355031	-0.254139	-0.080820	0.727488	0.042939	0.785471	0.374578	-0.091232	-0.243476	0.165238	-0.171201	0.084248	0.358952	-0.121318	-0.130644	-0.054558	0.038399	0.216780	0.083853	-0.046991	0.748911	0.799185
-178.000000	-0.058211	-1.313377	0.405924	0.013987	0.026749	-0.161497	-0.518493	0.391989	-0.174521	-0.061969	-0.068855	-0.368184	0.391687	-0.111989	-0.160071	0.463157	-0.071020	0.828149	0.384663	-0.024068	-0.265688	0.127057	-0.167756	0.235438	0.357402	-0.125382	-0.098692	-0.087107	-0.059308	0.225911	0.091070	-0.046995	1.000559	0.965457
-177.000000	-0.124669	-1.297351	0.347531	-0.048594	-0.048200	0.005355	-0.377772	0.335236	-0.166510	-0.086410	-0.071101	-0.142282	0.341164	0.125066	-0.176884	0.454714	-0.390082	0.727022	0.320127	0.116771	-0.214397	0.280089	-0.181153	0.320968	0.309044	-0.070483	-0.046362	-0.058914	-0.228221	0.227825	0.031106	-0.212629	0.993119	1.175901
-176.000000	-0.200967	-1.196994	0.237849	-0.130851	-0.125472	0.076900	-0.306258	0.223999	-0.105442	-0.102911	0.067323	-0.244038	0.220226	0.377048	-0.128866	0.722595	-0.798176	0.472185	0.219169	0.232453	-0.133529	0.565479	-0.101492	0.318866	0.231941	-0.002237	0.023112	0.090063	-0.309473	0.234008	-0.021855	-0.404655	0.835691	1.321223
-175.000000	-0.202312	-0.951069	0.196325	-0.187041	-0.219290	0.027579	-0.289856	0.177473	-0.019395	-0.154941	0.180453	-0.561408	0.161751	0.554593	-0.096477	0.867658	-1.092723	0.285221	0.202027	0.287026	-0.091818	0.600818	-0.009080	0.274340	0.218048	0.067644	0.075803	0.192413	-0.285396	0.282318	0.011871	-0.502555	0.872819	1.281807
-174.000000	-0.069413	-0.527548	0.348076	-0.121513	-0.334720	-0.042795	-0.253590	0.323224	-0.005712	-0.250455	0.099165	-0.643591	0.303369	0.446590	-0.162017	0.492295	-0.997032	0.299764	0.366850	0.256151	-0.133571	0.192831	-0.188493	0.246169	0.359775	0.130583	0.063007	0.098980	-0.226864	0.370371	0.095457	-0.535344	1.083151	0.951491
-173.000000	0.124018	-0.069535	0.679012	0.069354	-0.439884	-0.112450	-0.148559	0.645383	-0.054023	-0.360071	-0.132639	-0.430950	0.622450	0.101265	-0.289525	-0.151517	-0.667286	0.465254	0.696859	0.192301	-0.214111	-0.348188	-0.846850	0.114541	0.655600	0.229937	0.011857	-0.120712	-0.241827	0.452253	0.150828	-0.582787	1.224610	0.399250
-172.000000	0.269256	0.255891	1.033915	0.219840	-0.509046	-0.213325	-0.107310	0.988927	-0.117486	-0.428869	-0.323109	-0.328946	0.967832	-0.192352	-0.373284	-0.435514	-0.491521	0.702697	1.057974	0.170584	-0.263549	-0.654594	-1.782038	-0.160829	1.003286	0.375166	-0.010496	-0.322618	-0.355928	0.502906	0.167058	-0.644514	1.335760	-0.112823
-171.000000	0.309040	0.387698	1.256578	0.188073	-0.554984	-0.298587	-0.193872	1.196997	-0.214991	-0.457907	-0.384247	-0.443753	1.178065	-0.366884	-0.397389	-0.282851	-0.471023	0.891580	1.292557	0.155369	-0.273981	-0.661042	-2.435276	-0.373634	1.242343	0.482352	0.004959	-0.397366	-0.433699	0.527917	0.184061	-0.656099	1.484517	-0.380802
-170.000000	0.261670	0.327965	1.290412	0.052173	-0.576043	-0.370703	-0.326996	1.211633	-0.296199	-0.468045	-0.403054	-0.586147	1.195100	-0.446802	-0.404364	-0.099220	-0.383378	0.961566	1.331337	0.111169	-0.260824	-0.550122	-2.421383	-0.391090	1.272201	0.512037	0.042253	-0.363760	-0.393419	0.530181	0.225010	-0.583160	1.604160	-0.377938
-169.000000	0.225542	0.154329	1.204131	0.016474	-0.556291	-0.477314	-0.462643	1.120494	-0.241133	-0.436421	-0.498679	-0.681097	1.119040	-0.357507	-0.390534	-0.155947	-0.324413	0.907339	1.245987	0.107296	-0.231609	-0.536140	-1.874927	-0.322938	1.177764	0.509727	0.085920	-0.348422	-0.317361	0.510408	0.270518	-0.441596	1.616257	-0.237038
-168.000000	0.284333	-0.021244	1.076990	0.125008	-0.482073	-0.521206	-0.519609	1.004405	-0.052515	-0.360050	-0.654005	-0.697256	1.026845	-0.067675	-0.344099	-0.518684	-0.451452	0.828721	1.108842	0.208875	-0.201843	-0.671953	-1.129821	-0.378415	1.059207	0.516542	0.104051	-0.409184	-0.343616	0.482993	0.299786	-0.301897	1.538394	-0.161211
-167.000000	0.408553	-0.163861	0.927160	0.242612	-0.359645	-0.463176	-0.474252	0.862288	0.133607	-0.283101	-0.785220	-0.624517	0.904559	0.301302	-0.265418	-1.065474	-0.510573	0.872829	0.941259	0.367718	-0.176915	-0.839911	-0.435802	-0.614608	0.920328	0.523233	0.094282	-0.491198	-0.494985	0.470815	0.312371	-0.234258	1.437491	-0.259310
-166.000000	0.521661	-0.251795	0.843417	0.307344	-0.254121	-0.436214	-0.405551	0.786926	0.205487	-0.248912	-0.911263	-0.465345	0.832494	0.487138	-0.185586	-1.594699	-0.313773	1.046259	0.849603	0.450713	-0.157326	-0.911099	-0.089990	-0.915336	0.844679	0.499884	0.075831	-0.522442	-0.644444	0.477735	0.309206	-0.230480	1.334225	-0.426923
-165.000000	0.650648	-0.176656	0.859522	0.354833	-0.197595	-0.457734	-0.330406	0.825567	0.139479	-0.265243	-0.982247	-0.306237	0.847690	0.336686	-0.147003	-1.910203	-0.054221	1.253206	0.874204	0.374124	-0.154864	-0.884229	-0.261111	-1.141810	0.870437	0.436438	0.051896	-0.485864	-0.686033	0.500683	0.301181	-0.235139	1.309126	-0.649757
-164.000000	0.868863	0.080927	0.877000	0.384213	-0.158549	-0.435251	-0.317080	0.869135	0.012327	-0.294907	-0.802131	-0.316548	0.853073	0.023686	-0.137772	-1.775167	0.119537	1.366169	0.908701	0.202401	-0.184822	-0.835831	-0.817319	-1.200480	0.897739	0.341058	0.016509	-0.454535	-0.665510	0.513387	0.290827	-0.229650	1.377856	-1.070867
-163.000000	1.112141	0.346678	0.890733	0.387480	-0.139438	-0.400866	-0.478659	0.903199	-0.055671	-0.299660	-0.403375	-0.540134	0.848821	-0.155275	-0.141899	-1.206537	0.173508	1.392658	0.912766	0.065082	-0.258069	-0.813286	-1.519226	-1.048221	0.907949	0.241292	-0.035243	-0.497351	-0.682044	0.480321	0.255232	-0.242902	1.429452	-1.510702
-162.000000	1.265359	0.575364	0.905580	0.385330	-0.164332	-0.414145	-0.593586	0.928966	-0.033380	-0.310799	-0.183199	-0.729957	0.849341	-0.096440	-0.178279	-0.640808	0.089457	1.435417	0.884907	0.015695	-0.369483	-0.844935	-2.124509	-0.644350	0.900381	0.165858	-0.107887	-0.598892	-0.733787	0.411062	0.207542	-0.251492	1.398583	-1.631949
-161.000000	1.297633	0.797332	0.857298	0.366933	-0.222208	-0.386559	-0.429569	0.870716	0.013573	-0.353105	-0.325561	-0.630551	0.801471	0.084896	-0.257738	-0.422748	-0.103273	1.430154	0.797628	0.037216	-0.483260	-0.914952	-2.455139	-0.055755	0.826757	0.132121	-0.182225	-0.699850	-0.749980	0.349547	0.201865	-0.192667	1.280560	-1.427042
-160.000000	1.215439	0.886343	0.773870	0.291976	-0.300394	-0.262266	-0.175010	0.766256	0.013545	-0.402306	-0.550670	-0.364170	0.727111	0.211796	-0.363803	-0.433700	-0.325584	1.335931	0.685843	0.060708	-0.568237	-0.968276	-2.422930	0.499304	0.726645	0.132412	-0.236208	-0.753567	-0.715638	0.331519	0.247310	-0.063246	1.106044	-1.164605
-159.000000	1.084775	0.853451	0.741457	0.177808	-0.422203	-0.155726	-0.024684	0.723397	-0.065721	-0.472609	-0.649246	-0.212874	0.699736	0.136832	-0.484164	-0.445592	-0.449648	1.256992	0.626258	-0.020422	-0.637794	-0.974797	-1.969390	0.856134	0.681767	0.100313	-0.288463	-0.771063	-0.645439	0.349481	0.307863	0.093571	0.943265	-1.093474
-158.000000	0.975791	0.849472	0.737383	0.081717	-0.595659	-0.207986	0.012404	0.727795	-0.198346	-0.580682	-0.668078	-0.277955	0.707688	-0.146137	-0.611882	-0.359917	-0.509121	1.249832	0.624944	-0.228135	-0.694291	-0.886420	-1.154221	1.011609	0.682969	-0.009916	-0.345858	-0.745183	-0.482184	0.381650	0.388479	0.270236	0.883174	-1.237950
-157.000000	0.913909	0.885559	0.677824	0.045792	-0.740074	-0.400615	-0.041145	0.690118	-0.280723	-0.664511	-0.674403	-0.455240	0.670026	-0.383347	-0.700737	-0.209558	-0.659942	1.216743	0.607381	-0.418043	-0.707016	-0.703720	-0.291157	1.083764	0.647042	-0.138035	-0.380780	-0.664085	-0.245714	0.399659	0.478615	0.442413	0.938627	-1.479763
-156.000000	0.909591	0.921561	0.545515	0.086835	-0.761743	-0.534685	-0.125574	0.574260	-0.237253	-0.657075	-0.642745	-0.616627	0.548194	-0.339914	-0.717090	-0.142273	-0.925291	1.075560	0.514296	-0.428076	-0.673362	-0.584903	0.248272	1.197584	0.529002	-0.202682	-0.382369	-0.600651	-0.069662	0.399143	0.531702	0.560459	0.911886	-1.711035
-155.000000	0.923188	0.981239	0.383959	0.163935	-0.665762	-0.482939	-0.107860	0.408418	-0.131617	-0.569040	-0.569375	-0.655531	0.386880	-0.121593	-0.677773	-0.244610	-1.326310	0.958079	0.363280	-0.286845	-0.610912	-0.636937	0.410364	1.223802	0.369718	-0.189347	-0.354459	-0.598573	0.012100	0.425829	0.574395	0.644297	0.614020	-1.916558
-154.000000	0.983023	1.065994	0.280143	0.251571	-0.507786	-0.299711	0.050960	0.287153	-0.060176	-0.452736	-0.580065	-0.557260	0.288879	0.012028	-0.622059	-0.616595	-1.856076	0.932924	0.257359	-0.156643	-0.550938	-0.799624	0.414665	1.049049	0.256499	-0.130699	-0.305699	-0.621528	0.079553	0.500732	0.659294	0.747768	0.110446	-2.168534
-153.000000	1.174801	1.122826	0.308147	0.372863	-0.310616	-0.072519	0.216371	0.301069	-0.007049	-0.333053	-0.692671	-0.470586	0.321399	-0.032276	-0.582632	-1.206006	-2.399951	0.869304	0.276768	-0.140274	-0.529966	-0.989239	0.435086	0.788218	0.252798	-0.083748	-0.270698	-0.652280	0.164382	0.578688	0.751894	0.838949	-0.299414	-2.463855
-152.000000	1.480046	1.138079	0.420591	0.510258	-0.105413	0.103138	0.303551	0.415419	0.083207	-0.208132	-0.742943	-0.458744	0.432035	-0.131762	-0.551400	-1.568280	-2.706586	0.726782	0.360620	-0.217694	-0.549412	-1.142796	0.424025	0.471472	0.328006	-0.096257	-0.293053	-0.717015	0.161831	0.576546	0.752758	0.801123	-0.316531	-2.719264
-151.000000	1.790234	1.131019	0.532614	0.612131	0.059034	0.175506	0.262020	0.537679	0.188671	-0.087621	-0.644288	-0.510027	0.539542	-0.146229	-0.503742	-1.412543	-2.531300	0.581754	0.442897	-0.285602	-0.587107	-1.227270	0.187364	0.123750	0.408616	-0.138762	-0.375640	-0.823869	-0.029668	0.484752	0.621921	0.624163	0.060252	-2.913751
-150.000000	2.022515	1.103870	0.648810	0.671779	0.184772	0.183087	0.087931	0.662661	0.248042	0.007807	-0.442669	-0.644155	0.646984	-0.121555	-0.441743	-0.903486	-2.033680	0.477355	0.537836	-0.316359	-0.619271	-1.231594	-0.320572	-0.197676	0.483582	-0.179541	-0.478729	-0.931561	-0.345047	0.384628	0.438629	0.417350	0.647704	-3.096851
-149.000000	2.151685	1.115212	0.720074	0.720453	0.279865	0.168543	-0.090446	0.736857	0.247772	0.060800	-0.203491	-0.783549	0.707395	-0.165384	-0.395782	-0.288866	-1.433528	0.447129	0.584053	-0.390167	-0.649896	-1.129196	-0.892826	-0.444142	0.512595	-0.257581	-0.573029	-0.969577	-0.590226	0.291835	0.273979	0.239437	1.214944	-3.275319
-148.000000	2.190532	1.227114	0.657270	0.755598	0.336435	0.178659	-0.146752	0.651541	0.218500	0.079191	-0.012776	-0.786300	0.635738	-0.264232	-0.398114	0.169689	-0.739106	0.451353	0.488822	-0.518680	-0.694239	-0.963251	-1.233160	-0.525926	0.411462	-0.398056	-0.658002	-0.908540	-0.604618	0.170219	0.127410	0.102217	1.549531	-3.427950
-147.000000	2.202023	1.436217	0.544753	0.757497	0.348548	0.225671	-0.029261	0.500551	0.173354	0.062288	-0.012338	-0.571892	0.511287	-0.355244	-0.455412	0.121882	-0.048537	0.387342	0.333612	-0.649066	-0.759733	-0.883939	-1.176611	-0.417521	0.240368	-0.573909	-0.745774	-0.823997	-0.419230	0.036965	0.014860	0.025247	1.666492	-3.523516
-146.000000	2.233225	1.700997	0.487054	0.737481	0.313349	0.281423	0.206960	0.421510	0.135480	0.004792	-0.235022	-0.201871	0.435854	-0.373904	-0.541596	-0.484242	0.394196	0.249431	0.233237	-0.734103	-0.844738	-0.931174	-0.781309	-0.178025	0.124842	-0.738968	-0.829629	-0.765729	-0.173780	-0.089738	-0.056838	0.000833	1.698355	-3.486712
-145.000000	2.279510	1.904484	0.422198	0.717252	0.274206	0.344365	0.431194	0.360254	0.148389	-0.039830	-0.480908	0.145126	0.356733	-0.241110	-0.595577	-1.167591	0.477599	0.093687	0.125843	-0.705421	-0.897405	-0.944596	-0.307765	0.079009	0.039001	-0.842663	-0.872620	-0.687561	-0.012358	-0.226558	-0.146582	-0.030305	1.650519	-3.282010
-144.000000	2.336652	1.981042	0.258813	0.674951	0.265099	0.420470	0.557741	0.215608	0.193363	-0.024224	-0.527294	0.343793	0.192559	0.005743	-0.560863	-1.403625	0.365989	-0.023328	-0.070491	-0.549850	-0.860963	-0.799533	-0.082409	0.200210	-0.109761	-0.827039	-0.841705	-0.522918	-0.072592	-0.360197	-0.265403	-0.109838	1.493084	-2.951810
-143.000000	2.402895	1.974309	0.045574	0.551458	0.248135	0.501925	0.588352	0.015829	0.172908	0.015531	-0.406881	0.370890	-0.014971	0.141310	-0.472987	-1.183300	0.158622	-0.084797	-0.291536	-0.390937	-0.755741	-0.522492	-0.215502	0.161112	-0.290097	-0.700729	-0.722492	-0.151896	-0.253160	-0.421721	-0.318126	-0.151483	1.322279	-2.619435
-142.000000	2.461404	1.945379	-0.058429	0.379135	0.194501	0.567211	0.610662	-0.071354	0.028888	0.010961	-0.314064	0.343327	-0.102516	-0.031119	-0.424581	-0.923493	-0.142541	-0.082514	-0.363248	-0.442546	-0.677228	-0.247608	-0.363124	0.098958	-0.353897	-0.669829	-0.582708	0.303177	-0.240755	-0.422660	-0.315596	-0.113789	1.170243	-2.447076
-141.000000	2.522375	1.952220	0.031214	0.299461	0.136071	0.618513	0.716298	0.050936	-0.153681	-0.035975	-0.258443	0.440921	0.016351	-0.446115	-0.448571	-0.801482	-0.295454	-0.056074	-0.220850	-0.773740	-0.706653	-0.180747	-0.065430	0.026400	-0.244249	-0.902278	-0.567214	0.365439	0.062499	-0.507864	-0.421873	-0.152002	0.968105	-2.490672
-140.000000	2.563625	1.943727	0.215535	0.341384	0.099110	0.656095	0.812334	0.249322	-0.276390	-0.071848	-0.126271	0.556500	0.215528	-0.838922	-0.498036	-0.575861	-0.148256	-0.047416	-0.016427	-1.159119	-0.804167	-0.323507	0.535498	-0.097798	-0.076686	-1.224648	-0.690806	-0.018736	0.456909	-0.686272	-0.648594	-0.315808	0.785394	-2.670481
-139.000000	2.509079	1.853096	0.324347	0.372614	0.068825	0.653093	0.782004	0.359217	-0.364678	-0.089668	0.033135	0.478969	0.321644	-1.066060	-0.518032	-0.201894	0.069652	0.065898	0.103235	-1.386874	-0.874069	-0.424035	0.977336	-0.178274	0.027328	-1.419514	-0.813946	-0.364061	0.758725	-0.795793	-0.814290	-0.447013	0.694740	-2.909479
-138.000000	2.351584	1.751409	0.285775	0.333529	0.046074	0.649113	0.720597	0.327363	-0.445479	-0.098019	0.110811	0.326191	0.272477	-1.171163	-0.506347	0.037911	0.271539	0.253329	0.087960	-1.441143	-0.887427	-0.383981	1.107669	-0.144968	0.012560	-1.463276	-0.855773	-0.439345	0.940986	-0.789609	-0.821697	-0.438649	0.566920	-3.164602
-137.000000	2.168031	1.720658	0.138725	0.289372	0.054732	0.684205	0.765288	0.167112	-0.489007	-0.085164	0.089403	0.345609	0.113062	-1.186603	-0.480804	0.010443	0.451486	0.335433	-0.042669	-1.374992	-0.857584	-0.324916	1.068172	0.017883	-0.103493	-1.417445	-0.841261	-0.390720	1.012911	-0.752693	-0.743759	-0.341421	0.202260	-3.353131
-136.000000	2.055005	1.778575	-0.034063	0.275763	0.098549	0.719320	0.896044	-0.034940	-0.499758	-0.044476	0.035270	0.470908	-0.069013	-1.152831	-0.427613	-0.122641	0.332212	0.320585	-0.213723	-1.271036	-0.795084	-0.314867	1.168443	0.258830	-0.246832	-1.356771	-0.810152	-0.344162	0.985458	-0.743892	-0.676629	-0.236480	-0.253409	-3.430892
-135.000000	2.033403	1.867381	-0.212123	0.248957	0.177830	0.759319	0.934346	-0.236796	-0.524133	0.008220	0.081509	0.412123	-0.254773	-1.147892	-0.357008	-0.136332	-0.075081	0.229448	-0.400820	-1.193658	-0.723629	-0.317553	1.659478	0.455273	-0.407672	-1.312307	-0.780233	-0.289888	0.963866	-0.757826	-0.614772	-0.088656	-0.441614	-3.447684
-134.000000	2.058838	1.968555	-0.395698	0.200204	0.274376	0.813287	0.883669	-0.433103	-0.553094	0.025700	0.147612	0.239583	-0.438628	-1.167941	-0.328934	-0.105370	-0.341571	-0.009136	-0.599895	-1.149109	-0.687952	-0.361179	2.373235	0.616323	-0.599686	-1.287151	-0.755814	-0.227023	1.032563	-0.793535	-0.537342	0.138217	-0.362270	-3.475676
-133.000000	2.117473	2.146057	-0.523169	0.192395	0.360461	0.823206	0.962750	-0.559990	-0.529862	0.004374	0.012560	0.267271	-0.561642	-1.146236	-0.346720	-0.291309	-0.336455	-0.371487	-0.764967	-1.124992	-0.685808	-0.483436	2.811157	0.856587	-0.775469	-1.286309	-0.733663	-0.186129	1.126966	-0.849302	-0.482612	0.358299	-0.136794	-3.580010
-132.000000	2.174181	2.357935	-0.610371	0.231644	0.426599	0.775141	1.170408	-0.645246	-0.452303	-0.008913	-0.229828	0.517464	-0.653102	-1.044755	-0.353166	-0.626686	-0.220465	-0.700910	-0.891665	-1.083744	-0.668410	-0.592335	2.716921	1.170912	-0.922833	-1.292028	-0.699043	-0.152660	1.187274	-0.894593	-0.469709	0.484288	0.141613	-3.776292
-131.000000	2.164183	2.504483	-0.740682	0.270506	0.465583	0.711239	1.328119	-0.781044	-0.324437	0.006713	-0.335142	0.790206	-0.787849	-0.822799	-0.306697	-0.779945	-0.006675	-0.912083	-1.029986	-0.974905	-0.611833	-0.586254	2.166254	1.448315	-1.072368	-1.278159	-0.650896	-0.098993	1.182804	-0.930230	-0.501502	0.494074	0.234579	-4.000130
-130.000000	2.108803	2.519895	-0.910526	0.254816	0.476743	0.635592	1.280516	-0.951227	-0.199503	0.044631	-0.207855	0.842568	-0.943852	-0.539593	-0.187903	-0.461879	0.274205	-1.043293	-1.180661	-0.826021	-0.511983	-0.402489	1.406788	1.591952	-1.216929	-1.250231	-0.596990	0.011378	1.096786	-0.962631	-0.570722	0.419617	0.161780	-4.162103
-129.000000	2.072708	2.398904	-1.046409	0.161676	0.476586	0.569958	0.966037	-1.076924	-0.183750	0.098619	0.132665	0.570387	-1.063236	-0.391199	-0.017384	0.342629	0.458312	-1.115990	-1.288420	-0.731190	-0.374581	-0.034599	0.799013	1.472034	-1.325132	-1.223256	-0.515080	0.186544	0.977864	-0.976204	-0.638611	0.318029	0.246039	-4.217171
-128.000000	2.048568	2.233307	-1.085643	0.052402	0.473981	0.574067	0.514317	-1.099364	-0.251016	0.164328	0.541582	0.132899	-1.089625	-0.468634	0.141868	1.244665	0.461100	-1.092073	-1.300386	-0.759242	-0.223832	0.397475	0.513055	1.031267	-1.345978	-1.204206	-0.407788	0.366102	0.856334	-0.966306	-0.671142	0.217922	0.517869	-4.190363
-127.000000	1.981070	2.096807	-1.009747	-0.025655	0.440757	0.633297	0.200186	-0.999263	-0.303437	0.205116	0.769765	-0.152871	-0.998355	-0.657124	0.226525	1.650331	0.379395	-0.946610	-1.188070	-0.871697	-0.114820	0.708418	0.534989	0.457608	-1.240953	-1.182900	-0.322355	0.491342	0.742804	-0.945541	-0.680409	0.121397	0.716649	-4.123333
-126.000000	1.815948	1.965995	-0.881604	-0.080487	0.353846	0.668821	0.190767	-0.857055	-0.291706	0.185669	0.717272	-0.142403	-0.881121	-0.762302	0.229163	1.356093	0.351667	-0.792095	-1.021744	-0.941069	-0.071990	0.805289	0.885097	0.008002	-1.078032	-1.127205	-0.266207	0.568776	0.678103	-0.929205	-0.695130	0.038845	0.668932	-4.060818
-125.000000	1.550228	1.842000	-0.848403	-0.127826	0.229648	0.673137	0.437129	-0.827047	-0.196519	0.116206	0.535925	0.057853	-0.876270	-0.694455	0.192979	0.794722	0.341839	-0.763479	-0.954636	-0.906081	-0.057934	0.726355	1.585827	-0.148061	-1.000520	-1.037268	-0.225713	0.623618	0.691683	-0.945227	-0.736447	-0.053265	0.316790	-4.050756
-124.000000	1.298114	1.795972	-0.949357	-0.178691	0.108102	0.707263	0.804052	-0.925949	-0.046613	0.037855	0.371875	0.392343	-0.980054	-0.508964	0.147312	0.297673	0.308030	-0.777708	-1.019639	-0.810163	-0.049875	0.528532	2.475061	-0.057299	-1.044037	-0.951813	-0.210197	0.619419	0.701615	-1.026965	-0.828804	-0.227090	-0.180118	-4.058323
-123.000000	1.201736	1.818088	-1.039056	-0.236122	0.018357	0.767856	1.089963	-1.012842	0.063866	-0.006079	0.317131	0.743286	-1.053947	-0.339271	0.117796	-0.083957	0.411978	-0.708865	-1.096172	-0.720219	-0.045464	0.326462	3.144952	0.029884	-1.103923	-0.902717	-0.212275	0.544735	0.590492	-1.157595	-0.968583	-0.499497	-0.510961	-4.056654
-122.000000	1.266794	1.868744	-1.029211	-0.309077	-0.023139	0.845955	1.234008	-1.012245	0.022244	-0.014245	0.390442	0.997327	-1.033946	-0.317815	0.113814	-0.248873	0.795957	-0.658900	-1.109336	-0.685794	-0.040708	0.246664	3.257782	0.023373	-1.116486	-0.890783	-0.215835	0.464407	0.404266	-1.298816	-1.124627	-0.801944	-0.689930	-4.088992
-121.000000	1.414371	1.975481	-0.960765	-0.375350	-0.015093	0.892300	1.306948	-0.953196	-0.149645	-0.007736	0.419152	1.186871	-0.963541	-0.419158	0.121228	-0.193817	1.317345	-0.769691	-1.086733	-0.691198	-0.028369	0.309976	2.735481	0.060735	-1.104034	-0.876721	-0.202478	0.434428	0.253502	-1.397690	-1.220691	-1.011910	-0.936891	-4.106619
-120.000000	1.568412	2.099993	-0.898394	-0.364773	0.041884	0.831173	1.259514	-0.888662	-0.281538	0.032068	0.353023	1.211891	-0.899316	-0.499137	0.166029	0.056398	1.590177	-0.971554	-1.065335	-0.647329	0.019217	0.520399	1.691241	0.176466	-1.086120	-0.786172	-0.142725	0.467791	0.114598	-1.389475	-1.199054	-1.080693	-1.098622	-4.028427
-119.000000	1.620502	2.131043	-0.896714	-0.282223	0.145011	0.723894	1.091034	-0.891234	-0.291851	0.109760	0.353082	0.997569	-0.908651	-0.494032	0.263722	0.473234	1.452803	-1.104260	-1.089319	-0.522479	0.112098	0.863364	0.498995	0.287083	-1.098327	-0.595577	-0.041452	0.566262	-0.067316	-1.268451	-1.082029	-1.055541	-0.952918	-3.891428
-118.000000	1.514893	2.006787	-0.947835	-0.186576	0.285555	0.678285	0.907778	-0.967339	-0.206634	0.195677	0.437460	0.720000	-0.982318	-0.383526	0.367502	0.807710	1.222148	-1.127360	-1.154097	-0.403874	0.201048	1.151522	-0.393782	0.380019	-1.142046	-0.464218	0.051677	0.667624	-0.264010	-1.101802	-0.920745	-0.949526	-0.658758	-3.787501
-117.000000	1.329981	1.785486	-0.980502	-0.075360	0.455111	0.704466	0.783676	-1.014526	-0.043338	0.287779	0.481050	0.613987	-1.016943	-0.129399	0.433539	0.769604	1.276553	-1.124636	-1.163633	-0.314452	0.237767	1.157841	-0.893559	0.358651	-1.137523	-0.518871	0.094734	0.660459	-0.461927	-0.969826	-0.777764	-0.808427	-0.443550	-3.769549
-116.000000	1.138434	1.609678	-0.975660	0.027749	0.610175	0.730122	0.727359	-0.996326	0.120341	0.378836	0.499891	0.731722	-0.995490	0.168495	0.483041	0.483693	1.638569	-1.143036	-1.101038	-0.199155	0.253579	0.975331	-1.223947	0.122495	-1.075615	-0.619819	0.107299	0.565069	-0.697866	-0.891030	-0.697637	-0.755264	-0.379975	-3.773608
-115.000000	0.928546	1.574321	-0.939435	0.087948	0.744466	0.792524	0.760019	-0.944395	0.203503	0.478953	0.613053	0.969880	-0.948164	0.291395	0.556707	0.326521	2.068897	-1.193204	-1.016455	-0.138413	0.288668	0.845147	-1.612879	-0.297422	-0.993354	-0.661533	0.119217	0.457073	-0.959052	-0.857502	-0.698849	-0.846181	-0.541744	-3.699160
-114.000000	0.699435	1.641488	-0.849871	0.129437	0.880253	0.959029	0.904332	-0.850466	0.242337	0.607872	0.825217	1.174106	-0.856574	0.166026	0.637913	0.412516	2.353297	-1.267319	-0.910112	-0.215068	0.328255	0.823068	-2.132690	-0.913578	-0.885742	-0.685233	0.130645	0.355022	-1.148256	-0.847884	-0.742865	-0.964589	-0.854948	-3.557213
-113.000000	0.530242	1.699011	-0.733863	0.165664	0.969295	1.121088	1.041021	-0.735313	0.289520	0.720683	1.035707	1.195300	-0.736695	-0.052811	0.685158	0.631292	2.324757	-1.259146	-0.796769	-0.343404	0.362421	0.859398	-2.698484	-1.544670	-0.778548	-0.676681	0.161408	0.280210	-1.172235	-0.824977	-0.754169	-0.964412	-1.019744	-3.413874
-112.000000	0.501145	1.686017	-0.633446	0.192376	0.972127	1.204491	1.070325	-0.648279	0.324784	0.761776	1.122085	1.103507	-0.633441	-0.189382	0.679621	0.781535	1.925579	-1.181970	-0.713333	-0.407226	0.387801	0.874075	-3.181936	-1.800686	-0.704132	-0.596125	0.217944	0.223713	-1.035287	-0.765958	-0.697695	-0.840006	-1.048177	-3.295963
-111.000000	0.597354	1.584868	-0.584845	0.208382	0.904604	1.262740	1.094974	-0.616886	0.301936	0.732421	1.037557	1.114226	-0.589122	-0.233790	0.628925	0.694617	1.383827	-1.171091	-0.678752	-0.384247	0.393159	0.797292	-3.440936	-1.591312	-0.678059	-0.480865	0.277268	0.140389	-0.827648	-0.648838	-0.575580	-0.652569	-1.130724	-3.214500
-110.000000	0.738374	1.413244	-0.595451	0.186021	0.782270	1.285969	1.174639	-0.625170	0.210870	0.661183	0.845056	1.200041	-0.606949	-0.246443	0.546998	0.420009	0.896137	-1.212362	-0.686565	-0.328195	0.374913	0.656354	-3.301405	-1.108494	-0.695975	-0.381817	0.329738	0.047615	-0.601767	-0.493639	-0.430079	-0.455119	-1.174612	-3.154779
-109.000000	0.820893	1.222666	-0.611488	0.086534	0.619850	1.221017	1.166196	-0.629322	0.083887	0.564872	0.657208	1.117136	-0.628998	-0.259622	0.453209	0.171164	0.415936	-1.171830	-0.704709	-0.300558	0.336788	0.543137	-2.632723	-0.586563	-0.719643	-0.320224	0.364414	0.012191	-0.323030	-0.360780	-0.307758	-0.299854	-1.121124	-3.058934
-108.000000	0.790940	1.044899	-0.605802	-0.030969	0.438842	1.068608	0.969421	-0.627181	-0.013578	0.455830	0.540948	0.792007	-0.617344	-0.273357	0.370528	0.101155	0.004823	-1.035067	-0.709918	-0.310741	0.281681	0.455522	-1.491772	-0.251137	-0.725285	-0.306265	0.383121	0.007758	0.007357	-0.291344	-0.209617	-0.214058	-1.103591	-2.987207
-107.000000	0.694947	0.901612	-0.588854	-0.060264	0.275290	0.855200	0.674811	-0.624993	-0.025817	0.352546	0.431733	0.388855	-0.579262	-0.212589	0.292160	0.103343	-0.158611	-0.874371	-0.695901	-0.289856	0.213349	0.290238	-0.220761	-0.179340	-0.702240	-0.290595	0.397579	-0.053418	0.267697	-0.263516	-0.132810	-0.186160	-1.187290	-3.029663
-106.000000	0.583172	0.801695	-0.594596	-0.019159	0.156118	0.615639	0.365057	-0.628462	0.026398	0.263633	0.267415	0.031573	-0.562396	-0.020008	0.232376	0.046386	-0.104473	-0.681489	-0.676175	-0.168085	0.164123	0.064867	0.775253	-0.232203	-0.681481	-0.209156	0.406390	-0.155600	0.380172	-0.211029	-0.071509	-0.164446	-1.259201	-3.082013
-105.000000	0.464646	0.723985	-0.617424	0.029671	0.097975	0.388546	0.055624	-0.627404	0.086308	0.202316	0.163966	-0.301018	-0.568551	0.218967	0.239851	0.090449	-0.133243	-0.549323	-0.652144	0.028446	0.169886	-0.080871	1.291797	-0.282632	-0.673024	-0.073713	0.417925	-0.219918	0.357712	-0.110322	0.000222	-0.138703	-1.204151	-3.067779
-104.000000	0.384961	0.667779	-0.573764	0.086342	0.118158	0.212557	-0.122223	-0.571670	0.124581	0.182091	0.181185	-0.508259	-0.519895	0.321171	0.288843	0.251666	-0.299647	-0.561911	-0.585078	0.158422	0.205388	-0.148646	1.358819	-0.337626	-0.612311	0.038750	0.408821	-0.237042	0.191267	0.010823	0.061483	-0.175034	-1.101502	-3.036133
-103.000000	0.389896	0.653857	-0.456820	0.153792	0.185750	0.111289	-0.059955	-0.471466	0.151100	0.186413	0.176898	-0.442248	-0.417904	0.254702	0.308301	0.196283	-0.260795	-0.616863	-0.467251	0.142884	0.220222	-0.231252	1.169821	-0.436995	-0.499054	0.086585	0.356890	-0.227611	-0.094870	0.116398	0.085414	-0.263411	-1.112005	-3.009510
-102.000000	0.483832	0.660135	-0.338618	0.224892	0.264761	0.052629	0.088993	-0.379431	0.220613	0.208630	0.083621	-0.223929	-0.324097	0.252341	0.306023	-0.113783	0.083327	-0.636397	-0.336448	0.116981	0.209158	-0.292199	0.795813	-0.687837	-0.378588	0.130471	0.303410	-0.213092	-0.448529	0.174241	0.072951	-0.359874	-1.152681	-2.968378
-101.000000	0.621253	0.676848	-0.252195	0.299879	0.360944	0.020464	0.132383	-0.315846	0.352430	0.255353	-0.002456	-0.053723	-0.258851	0.416394	0.314671	-0.354403	0.599775	-0.614054	-0.239581	0.196960	0.193593	-0.264767	0.115467	-1.093042	-0.281102	0.216008	0.274415	-0.230650	-0.779810	0.168865	0.009173	-0.484396	-1.033350	-2.859355
-100.000000	0.684273	0.692986	-0.209855	0.384302	0.483182	0.040755	0.033492	-0.281720	0.495686	0.336728	0.058427	-0.053661	-0.230336	0.589256	0.344230	-0.245694	1.049592	-0.633563	-0.206835	0.319964	0.211113	-0.117883	-0.846368	-1.480412	-0.244067	0.318601	0.277662	-0.247768	-0.970053	0.135265	-0.068297	-0.619001	-0.806418	-2.666357
-99.000000	0.634254	0.693705	-0.245133	0.449197	0.622686	0.095172	-0.197109	-0.295165	0.592346	0.464693	0.343465	-0.315276	-0.266795	0.698257	0.424797	0.320368	1.079424	-0.690779	-0.248539	0.434011	0.300994	0.144164	-1.813961	-1.771538	-0.295330	0.433984	0.340611	-0.223078	-1.043610	0.146366	-0.095711	-0.716473	-0.522528	-2.391455
-98.000000	0.572104	0.749176	-0.349462	0.466234	0.758530	0.185868	-0.454643	-0.378405	0.608887	0.619374	0.789257	-0.780853	-0.379854	0.770749	0.536063	1.109382	0.624458	-0.630422	-0.360881	0.544231	0.430568	0.361139	-2.519422	-1.895969	-0.421080	0.550868	0.450163	-0.252561	-1.157182	0.246201	-0.047490	-0.745027	-0.241750	-2.092748
-97.000000	0.511369	0.867931	-0.452986	0.469569	0.854271	0.302373	-0.571875	-0.478623	0.611257	0.744689	1.103219	-1.185260	-0.504145	0.848641	0.607775	1.595935	-0.157158	-0.448876	-0.477278	0.653103	0.527576	0.410504	-2.827408	-1.734751	-0.527179	0.650507	0.550706	-0.391641	-1.369104	0.417950	0.080936	-0.682028	-0.200283	-1.895993
-96.000000	0.365959	0.936697	-0.536191	0.464749	0.863631	0.387955	-0.536450	-0.546242	0.662943	0.791310	1.026447	-1.238196	-0.587358	0.935840	0.612026	1.438907	-0.951752	-0.308406	-0.557735	0.734179	0.567163	0.414737	-2.640405	-1.328740	-0.585153	0.697735	0.607014	-0.468047	-1.470125	0.571132	0.229508	-0.553127	-0.409845	-1.808932
-95.000000	0.195476	0.884358	-0.546482	0.435929	0.757698	0.405158	-0.406705	-0.550060	0.688808	0.740571	0.572297	-0.874201	-0.585228	0.918126	0.533785	0.715684	-1.331569	-0.331971	-0.595505	0.697720	0.537672	0.394965	-2.041356	-0.824576	-0.608510	0.646431	0.593452	-0.381237	-1.216572	0.636534	0.330833	-0.391524	-0.616213	-1.715866
-94.000000	0.119206	0.722815	-0.412043	0.401035	0.576891	0.348994	-0.209946	-0.431991	0.670084	0.606857	-0.081622	-0.375185	-0.447541	0.805595	0.383613	-0.210279	-1.238771	-0.456088	-0.514803	0.563278	0.442934	0.170503	-1.430018	-0.436590	-0.524071	0.549704	0.506596	-0.282779	-0.693113	0.669838	0.405570	-0.198672	-0.595059	-1.525972
-93.000000	0.125168	0.447094	-0.186303	0.368995	0.403467	0.236810	-0.140639	-0.202761	0.687199	0.454350	-0.592946	-0.179509	-0.211883	0.723971	0.250214	-0.817788	-1.018804	-0.526826	-0.284519	0.461390	0.348176	-0.227565	-1.183018	-0.307544	-0.301017	0.499499	0.411330	-0.251134	-0.232330	0.754376	0.498937	-0.006390	-0.325652	-1.310197
-92.000000	0.152739	0.034106	0.074835	0.309366	0.238420	0.051827	-0.360812	0.082044	0.701009	0.315996	-0.786358	-0.399175	0.074685	0.611184	0.176414	-0.864250	-0.973645	-0.464449	0.031821	0.396691	0.303500	-0.536893	-1.268389	-0.343900	0.019662	0.516393	0.375677	-0.140933	-0.060553	0.905879	0.652377	0.174730	0.044182	-1.170081
-91.000000	0.139835	-0.427112	0.308154	0.189928	0.043009	-0.158563	-0.719459	0.342492	0.598579	0.178114	-0.798165	-0.787243	0.345879	0.379750	0.111117	-0.618452	-1.113952	-0.287315	0.332695	0.306888	0.295043	-0.595690	-1.339000	-0.387161	0.342175	0.561228	0.401954	0.146350	-0.098501	1.079781	0.861541	0.366102	0.402456	-1.049234
-90.000000	0.079784	-0.786176	0.433783	0.071932	-0.122396	-0.250549	-1.007620	0.493473	0.404433	0.055127	-0.748156	-1.082089	0.513000	0.126039	0.025280	-0.473515	-1.204115	-0.102899	0.533309	0.213223	0.272430	-0.590855	-1.004037	-0.340301	0.572664	0.594131	0.410561	0.261524	-0.080448	1.203363	1.014314	0.514787	0.596369	-0.919901
-89.000000	0.035894	-0.945661	0.464198	0.023059	-0.194735	-0.215073	-1.140593	0.521141	0.225435	-0.034339	-0.673560	-1.155195	0.557607	-0.007477	-0.070538	-0.523992	-1.104752	-0.033594	0.621897	0.163821	0.207850	-0.783297	-0.206195	-0.220913	0.689976	0.614636	0.327983	-0.127819	0.107735	1.234532	1.042348	0.599622	0.563837	-0.818435
-88.000000	-0.007132	-0.926202	0.424000	-0.004627	-0.223643	-0.206039	-1.114527	0.459404	0.082750	-0.105735	-0.580078	-1.068105	0.501928	0.010048	-0.166564	-0.611890	-0.904427	-0.059108	0.614373	0.176220	0.130458	-1.061635	0.654362	-0.127702	0.694758	0.638587	0.207055	-0.663202	0.365054	1.193384	0.993208	0.685024	0.488889	-0.688100
-87.000000	-0.107768	-0.856816	0.306064	-0.081887	-0.240003	-0.245497	-0.977189	0.318406	-0.069532	-0.179458	-0.482298	-0.958280	0.365788	0.060767	-0.258230	-0.674811	-0.629000	-0.038604	0.511554	0.199435	0.062179	-1.186302	1.266881	-0.022276	0.590971	0.650392	0.125190	-0.911812	0.611497	1.140296	0.933651	0.776690	0.420078	-0.517200
-86.000000	-0.189856	-0.732437	0.179125	-0.187139	-0.227341	-0.248610	-0.773407	0.161608	-0.247145	-0.243855	-0.516821	-0.848752	0.222945	-0.006926	-0.328846	-0.806444	-0.291757	0.159786	0.391969	0.130127	-0.006757	-1.161178	1.580564	0.178633	0.461261	0.624752	0.077861	-0.911566	0.754098	1.124157	0.889308	0.792642	0.265171	-0.406801
-85.000000	-0.118848	-0.465279	0.137569	-0.213849	-0.172624	-0.230464	-0.539898	0.104660	-0.360302	-0.269595	-0.708749	-0.715546	0.172274	-0.178426	-0.361680	-1.012275	-0.022844	0.516530	0.356108	-0.052467	-0.081568	-1.135267	1.603779	0.364159	0.409559	0.550513	0.042377	-0.882428	0.688965	1.101566	0.811297	0.662752	0.091601	-0.433804
-84.000000	0.035911	-0.121917	0.129085	-0.136225	-0.085297	-0.253704	-0.342473	0.099630	-0.301956	-0.242191	-0.842946	-0.578927	0.170192	-0.257044	-0.345944	-1.081253	0.040821	0.814961	0.352169	-0.230519	-0.137805	-1.084589	1.417730	0.423587	0.395895	0.443536	0.027213	-0.868002	0.463884	1.017368	0.667826	0.410983	-0.052398	-0.521907
-83.000000	0.137369	0.141690	0.096317	-0.048773	0.001138	-0.301903	-0.205339	0.072141	-0.182810	-0.170447	-0.846448	-0.447547	0.150060	-0.233140	-0.270459	-0.992049	-0.227112	0.899305	0.317482	-0.293792	-0.136207	-0.852004	1.166794	0.357939	0.354898	0.355459	0.058607	-0.740402	0.243489	0.922624	0.528332	0.144787	-0.191131	-0.537947
-82.000000	0.214058	0.233824	0.106044	0.032293	0.095316	-0.311724	-0.086727	0.098559	-0.147489	-0.068324	-0.801076	-0.326319	0.163775	-0.265520	-0.156546	-0.997734	-0.730828	0.775449	0.304681	-0.240772	-0.083633	-0.546104	0.991619	0.253190	0.328448	0.311951	0.117092	-0.516181	0.150491	0.813250	0.393970	-0.105033	-0.289698	-0.526174
-81.000000	0.292526	0.204592	0.142591	0.170708	0.202592	-0.301393	-0.000222	0.158964	-0.050419	0.043173	-0.729135	-0.229506	0.194365	-0.196946	-0.033636	-1.088394	-1.066984	0.524378	0.302086	-0.073507	-0.021228	-0.438760	0.933449	0.173342	0.314130	0.318809	0.147515	-0.364087	0.158099	0.595237	0.165737	-0.448075	-0.378438	-0.501989
-80.000000	0.312568	0.177582	0.100078	0.304502	0.284979	-0.306895	-0.027938	0.135400	0.164487	0.150025	-0.593367	-0.224782	0.145513	0.052755	0.082827	-0.960654	-1.065106	0.285398	0.230528	0.145144	0.051058	-0.490876	0.961596	0.047504	0.246134	0.378674	0.157264	-0.322185	0.181193	0.325354	-0.089232	-0.839527	-0.435051	-0.293283
-79.000000	0.211179	0.184103	-0.029981	0.298257	0.275362	-0.360364	-0.196652	0.028551	0.279752	0.217499	-0.399863	-0.364819	0.012646	0.209329	0.157000	-0.588489	-0.920814	0.160371	0.117990	0.272092	0.139119	-0.501632	1.101698	-0.040584	0.139620	0.464773	0.189625	-0.288843	0.221998	0.196173	-0.176048	-1.009046	-0.336371	0.130929
-78.000000	-0.011111	0.153204	-0.149358	0.121006	0.139485	-0.468172	-0.398804	-0.072077	0.185707	0.190836	-0.255684	-0.508328	-0.113057	0.192548	0.157841	-0.315157	-0.797253	0.140200	0.042390	0.297389	0.205858	-0.453462	1.405050	0.032923	0.070155	0.548917	0.238052	-0.216762	0.283484	0.255671	-0.061194	-0.840295	-0.134174	0.599616
-77.000000	-0.268966	0.055692	-0.201188	-0.138554	-0.051150	-0.538000	-0.495962	-0.116026	-0.037155	0.097544	-0.152344	-0.531493	-0.178314	0.130599	0.104346	-0.242306	-0.765173	0.148673	0.009574	0.311527	0.244384	-0.376599	1.761163	0.176224	0.044849	0.598637	0.278102	-0.126331	0.259521	0.372050	0.114722	-0.488046	0.006675	0.992288
-76.000000	-0.498417	-0.090004	-0.209829	-0.351107	-0.218065	-0.547907	-0.509724	-0.129979	-0.241827	0.007966	0.053555	-0.556006	-0.200025	0.059245	0.058408	-0.071501	-0.824730	0.146551	-0.007000	0.324145	0.283379	-0.197694	1.926677	0.265768	0.014245	0.568256	0.320350	-0.007035	0.119547	0.432101	0.236872	-0.156218	0.076726	1.324683
-75.000000	-0.687640	-0.275858	-0.168940	-0.451808	-0.351308	-0.525187	-0.466553	-0.119308	-0.367575	-0.060914	0.299634	-0.605101	-0.163974	-0.082737	0.052501	0.336152	-0.963179	0.198358	0.001358	0.256678	0.313295	0.110088	1.785666	0.207903	-0.006138	0.464720	0.369111	0.171668	-0.034975	0.419916	0.294105	0.050043	0.175489	1.652448
-74.000000	-0.813148	-0.463589	-0.084835	-0.447506	-0.446250	-0.463826	-0.356464	-0.074889	-0.432072	-0.107287	0.460804	-0.551799	-0.080854	-0.295386	0.054761	0.796327	-1.178293	0.337413	0.025884	0.083307	0.308335	0.429535	1.407778	0.085823	-0.002432	0.354131	0.399484	0.381445	-0.152838	0.363744	0.307378	0.155320	0.205520	1.881170
-73.000000	-0.848822	-0.597701	-0.049360	-0.380914	-0.487259	-0.421671	-0.297127	-0.062497	-0.446792	-0.125611	0.578240	-0.401893	-0.044538	-0.486782	0.036273	1.120181	-1.159219	0.433929	-0.002773	-0.106552	0.272243	0.640222	0.941818	0.088763	-0.036756	0.271519	0.404327	0.549630	-0.225708	0.304272	0.306267	0.234290	-0.004169	1.876871
-72.000000	-0.817966	-0.705290	-0.123087	-0.289956	-0.469549	-0.406577	-0.284344	-0.143227	-0.422340	-0.128748	0.629055	-0.161956	-0.118893	-0.586882	0.019188	1.210884	-0.627635	0.325336	-0.115525	-0.217619	0.232971	0.728255	0.518424	0.193416	-0.143226	0.205633	0.408614	0.647683	-0.211386	0.250696	0.302421	0.301630	-0.360822	1.709619
-71.000000	-0.773484	-0.831956	-0.221512	-0.199879	-0.409434	-0.382543	-0.242954	-0.243115	-0.354937	-0.108680	0.568318	0.078570	-0.228318	-0.581308	0.032082	1.166508	0.024421	0.000340	-0.218001	-0.226803	0.222750	0.768058	0.166884	0.286373	-0.229020	0.170143	0.438141	0.693473	-0.127392	0.175337	0.273821	0.314118	-0.650221	1.498066
-70.000000	-0.761959	-0.960883	-0.284909	-0.192462	-0.332513	-0.354764	-0.275789	-0.305174	-0.291550	-0.057840	0.486585	0.057754	-0.297886	-0.504138	0.078182	1.243431	0.347279	-0.465245	-0.250750	-0.163963	0.266766	0.857510	-0.057583	0.451713	-0.236613	0.179489	0.496689	0.731381	-0.031905	0.108915	0.244368	0.275865	-0.780429	1.263452
-69.000000	-0.807342	-1.019256	-0.368702	-0.296710	-0.237244	-0.291268	-0.332512	-0.384196	-0.274598	-0.006409	0.418885	-0.133866	-0.373090	-0.369846	0.146599	1.285216	0.378741	-0.960175	-0.271976	-0.041070	0.354571	0.942985	-0.066970	0.719907	-0.239296	0.234882	0.569949	0.771906	0.047453	0.110170	0.253506	0.239758	-0.794667	0.997601
-68.000000	-0.863781	-0.917295	-0.498287	-0.403112	-0.105081	-0.144732	-0.167956	-0.499196	-0.258420	0.054126	0.261838	-0.078440	-0.487617	-0.164459	0.212090	0.804460	0.312606	-1.296568	-0.330336	0.151639	0.451151	0.832754	0.075999	0.847148	-0.284994	0.347912	0.644997	0.762240	0.082623	0.163568	0.284609	0.210516	-0.846220	0.739227
-67.000000	-0.909470	-0.723567	-0.629484	-0.445747	0.045997	0.031483	0.164529	-0.615878	-0.216521	0.139857	0.034511	0.231211	-0.610075	0.060922	0.271745	-0.054357	0.349377	-1.340879	-0.414534	0.367822	0.536681	0.564275	0.190439	0.657646	-0.358414	0.474940	0.709228	0.705932	0.079787	0.213993	0.300892	0.187660	-1.002987	0.616946
-66.000000	-0.982924	-0.619007	-0.688423	-0.436265	0.180894	0.131619	0.327577	-0.682651	-0.168234	0.249447	-0.028671	0.398151	-0.681639	0.217400	0.357714	-0.493511	0.481148	-1.122509	-0.471999	0.505345	0.610176	0.414854	0.080840	0.142889	-0.416189	0.539242	0.752561	0.657164	0.026255	0.234616	0.292344	0.191784	-1.053811	0.710838
-65.000000	-1.083944	-0.639134	-0.708919	-0.389141	0.294716	0.132472	0.205335	-0.715523	-0.125069	0.413055	0.229597	0.242137	-0.714460	0.243717	0.485491	-0.030240	0.418433	-0.793691	-0.515465	0.501247	0.693997	0.550522	-0.227232	-0.533704	-0.472428	0.521099	0.782702	0.649340	-0.114017	0.217649	0.265100	0.216363	-0.907270	0.946032
-64.000000	-1.185572	-0.691803	-0.776030	-0.369299	0.362031	0.065788	-0.000730	-0.769517	-0.137343	0.584131	0.652700	-0.007245	-0.757105	0.109330	0.600056	0.977155	0.199725	-0.558948	-0.588953	0.373832	0.779039	0.883540	-0.443016	-1.063873	-0.558453	0.443203	0.794136	0.691828	-0.278080	0.180703	0.225723	0.263046	-0.707805	1.144973
-63.000000	-1.244390	-0.764211	-0.837400	-0.414969	0.356010	0.001730	-0.184496	-0.811740	-0.212706	0.664890	0.940782	-0.118359	-0.780650	-0.092720	0.617767	1.727127	0.212293	-0.473584	-0.655511	0.206823	0.809667	1.190206	-0.382478	-1.263980	-0.639769	0.336640	0.758494	0.758466	-0.357095	0.144976	0.182694	0.325498	-0.441843	1.182111
-62.000000	-1.264058	-0.882761	-0.815361	-0.457787	0.322642	0.020579	-0.393521	-0.798963	-0.233622	0.652412	0.966959	-0.171456	-0.758260	-0.143407	0.553107	1.789103	0.411437	-0.403983	-0.671955	0.136934	0.780226	1.318673	-0.107176	-1.168904	-0.680845	0.260674	0.677544	0.799111	-0.326596	0.091058	0.127780	0.370419	-0.079904	1.115321
-61.000000	-1.302664	-1.014608	-0.739867	-0.435191	0.312947	0.072033	-0.558058	-0.749470	-0.133049	0.614328	0.810032	-0.250310	-0.716967	0.054538	0.490144	1.378697	0.352322	-0.255279	-0.647901	0.244391	0.748010	1.285551	0.198343	-0.979655	-0.667270	0.284301	0.591868	0.783058	-0.240837	0.033733	0.068241	0.368593	0.152677	1.058177
-60.000000	-1.350357	-1.124065	-0.644094	-0.342946	0.304187	0.045256	-0.531525	-0.660338	0.033153	0.583884	0.569875	-0.232156	-0.652795	0.353552	0.454563	0.815963	-0.087897	-0.052952	-0.577046	0.445506	0.729358	1.164047	0.324791	-0.826115	-0.595923	0.396425	0.537447	0.723625	-0.129986	0.028460	0.024664	0.273440	0.151818	1.044586
-59.000000	-1.376724	-1.178638	-0.530132	-0.229736	0.250236	-0.037275	-0.316179	-0.531305	0.169793	0.539530	0.318261	-0.043939	-0.554877	0.527171	0.428039	0.223840	-0.477391	0.059266	-0.456690	0.569077	0.691927	0.991684	0.217453	-0.641029	-0.481777	0.495366	0.511896	0.670046	0.053011	0.053094	-0.010196	0.096201	0.078171	1.056522
-58.000000	-1.404415	-1.159478	-0.418512	-0.156146	0.171806	-0.077636	-0.096380	-0.399503	0.238140	0.469868	0.169900	0.187995	-0.451512	0.500546	0.403708	-0.173317	-0.414271	-0.007342	-0.332997	0.540540	0.629554	0.787534	-0.005606	-0.441014	-0.350409	0.511777	0.481329	0.622938	0.296124	0.022913	-0.064124	-0.082010	-0.049854	1.101639
-57.000000	-1.433640	-1.067783	-0.326406	-0.112326	0.114970	-0.052056	-0.000232	-0.283305	0.302729	0.401859	0.182664	0.285849	-0.344767	0.419824	0.388573	-0.178555	-0.109779	-0.148777	-0.232752	0.459045	0.572539	0.573172	-0.256539	-0.397190	-0.224038	0.478337	0.433119	0.530541	0.437559	-0.074395	-0.128978	-0.209261	-0.260561	1.193743
-56.000000	-1.444983	-0.937593	-0.268933	-0.069188	0.072981	0.002363	0.021583	-0.210863	0.447558	0.363797	0.243448	0.257178	-0.252347	0.493623	0.374095	-0.017568	0.071581	-0.210503	-0.165678	0.468443	0.537237	0.400879	-0.537190	-0.540533	-0.128356	0.466111	0.390600	0.399143	0.351978	-0.159474	-0.150665	-0.268725	-0.450430	1.361753
-55.000000	-1.441190	-0.816125	-0.196076	-0.038142	0.030256	0.059939	0.058296	-0.159259	0.630003	0.319623	0.213669	0.284025	-0.162208	0.690206	0.329774	-0.081280	0.149930	-0.109182	-0.097786	0.552943	0.488423	0.272803	-0.925368	-0.661657	-0.051040	0.477475	0.343414	0.256765	0.107922	-0.173717	-0.119474	-0.232958	-0.573128	1.656147
-54.000000	-1.370900	-0.667232	-0.014149	-0.027044	0.010629	0.096609	0.138658	-0.022059	0.699568	0.233721	0.109445	0.465716	0.016614	0.726604	0.254975	-0.366971	0.201735	0.076359	0.050902	0.545186	0.401483	0.167958	-1.513558	-0.606325	0.081988	0.440535	0.247613	0.122567	-0.181869	-0.140158	-0.072659	-0.105945	-0.587412	2.033690
-53.000000	-1.196764	-0.457268	0.237087	-0.013119	0.044230	0.090300	0.223786	0.199446	0.617158	0.162184	0.074349	0.676660	0.255201	0.514591	0.194479	-0.470618	0.204402	0.168779	0.243103	0.383827	0.298046	0.213678	-2.220693	-0.507387	0.261581	0.318758	0.119788	0.055979	-0.477580	-0.132145	-0.076509	-0.005332	-0.410482	2.376180
-52.000000	-0.998167	-0.278983	0.403943	0.032261	0.118854	0.035555	0.221943	0.357241	0.486118	0.159659	0.184905	0.695159	0.401884	0.261908	0.187871	-0.105814	0.226704	0.096151	0.355527	0.188475	0.224648	0.510699	-2.791385	-0.583353	0.368650	0.170320	0.026796	0.108927	-0.699469	-0.185256	-0.165320	-0.016450	-0.208073	2.562659
-51.000000	-0.864136	-0.203461	0.382901	0.099297	0.201692	-0.022417	0.172594	0.337766	0.387578	0.198694	0.361896	0.566483	0.373123	0.096775	0.212260	0.516157	0.375549	-0.090932	0.323423	0.050964	0.206274	0.854266	-2.981249	-0.840021	0.328330	0.062799	-0.002393	0.217880	-0.747819	-0.251200	-0.268784	-0.054291	-0.268059	2.480208
-50.000000	-0.806674	-0.257888	0.226346	0.157466	0.263400	-0.026328	0.191049	0.200813	0.323405	0.217439	0.476362	0.520300	0.228973	0.012023	0.217209	0.926682	0.641185	-0.347571	0.197250	-0.013921	0.209782	0.935646	-2.664362	-1.122379	0.189225	0.014510	0.005545	0.254962	-0.633724	-0.243000	-0.293822	0.000097	-0.613272	2.139319
-49.000000	-0.766185	-0.421312	0.127141	0.227757	0.291256	0.007901	0.263145	0.136353	0.280247	0.191919	0.450782	0.584846	0.140235	0.015747	0.185202	0.897353	0.797510	-0.589974	0.131599	-0.005345	0.189035	0.708790	-1.922570	-1.332436	0.106988	0.011739	-0.007059	0.183230	-0.505677	-0.177426	-0.270007	0.069213	-0.928861	1.780041
-48.000000	-0.694883	-0.525561	0.162535	0.313089	0.310661	-0.002432	0.263749	0.199004	0.255678	0.151661	0.372506	0.584672	0.172061	0.085918	0.145132	0.657294	0.724308	-0.698490	0.180509	0.049323	0.155417	0.384935	-0.957865	-1.405045	0.149437	0.027427	-0.059441	0.054610	-0.449904	-0.212893	-0.335685	-0.057726	-0.876672	1.586994
-47.000000	-0.658137	-0.511021	0.184672	0.340053	0.326512	-0.093648	0.088538	0.227112	0.230346	0.123889	0.431834	0.385872	0.186376	0.199522	0.137830	0.595571	0.620966	-0.733647	0.212728	0.138269	0.147703	0.185839	0.041851	-1.254063	0.184935	0.045333	-0.105617	-0.043141	-0.338789	-0.408029	-0.514788	-0.374871	-0.511360	1.496442
-46.000000	-0.719452	-0.517134	0.129585	0.261157	0.288737	-0.191167	-0.154477	0.153991	0.183425	0.086972	0.514235	0.120392	0.124634	0.384111	0.142042	0.572643	0.559440	-0.757709	0.176290	0.288086	0.148954	0.120192	0.781167	-0.845468	0.146061	0.098588	-0.113217	-0.048311	-0.074461	-0.607835	-0.651747	-0.599723	-0.143654	1.505100
-45.000000	-0.827794	-0.669778	0.110734	0.124325	0.179895	-0.248173	-0.285857	0.106611	0.143938	0.008623	0.343835	-0.024548	0.097781	0.609726	0.104913	0.199125	0.376280	-0.627556	0.196210	0.488757	0.130175	-0.022468	1.031604	-0.262043	0.153634	0.238012	-0.091197	-0.038897	0.236801	-0.660458	-0.603335	-0.518877	0.043108	1.709922
-44.000000	-0.914572	-0.941275	0.201405	0.009478	0.019994	-0.310886	-0.260573	0.179285	0.125984	-0.116454	-0.019212	-0.045474	0.182493	0.711958	0.005654	-0.315275	0.108196	-0.271944	0.334430	0.614598	0.068461	-0.353500	0.952725	0.304054	0.284819	0.383769	-0.070296	-0.131220	0.438226	-0.574310	-0.403864	-0.196676	0.026227	2.068371
-43.000000	-0.977173	-1.226386	0.404123	-0.072426	-0.181294	-0.415772	-0.187519	0.372860	0.075642	-0.265479	-0.375999	-0.032472	0.379040	0.558677	-0.134993	-0.568497	-0.043443	0.197648	0.545320	0.536067	-0.036697	-0.703690	0.847135	0.669396	0.507113	0.414138	-0.068595	-0.278805	0.476543	-0.420527	-0.177390	0.183452	-0.169625	2.458586
-42.000000	-1.057322	-1.498109	0.652981	-0.149701	-0.389749	-0.475996	-0.174910	0.617828	-0.008609	-0.409153	-0.638464	-0.026267	0.625003	0.260507	-0.275345	-0.677753	-0.084755	0.588557	0.762723	0.315211	-0.140271	-0.894814	0.883717	0.838306	0.756436	0.343439	-0.067373	-0.348382	0.443194	-0.260475	0.013291	0.476252	-0.398328	2.802461
-41.000000	-1.180625	-1.749193	0.831838	-0.222087	-0.563163	-0.435594	-0.197867	0.803239	-0.071788	-0.537842	-0.794700	0.018126	0.818614	0.019499	-0.383718	-0.894680	-0.102219	0.698843	0.908016	0.117950	-0.211560	-0.910911	1.079041	0.999846	0.945239	0.243436	-0.048469	-0.279278	0.460698	-0.134816	0.150746	0.623377	-0.522086	3.048409
-40.000000	-1.336552	-1.935888	0.896247	-0.276715	-0.691094	-0.392797	-0.200339	0.877968	-0.109014	-0.646694	-0.876063	0.147595	0.906561	-0.092525	-0.447515	-1.137421	-0.073275	0.566535	0.963710	0.015457	-0.253724	-0.793205	1.249447	1.237792	1.020998	0.159579	-0.026976	-0.123733	0.515661	-0.036754	0.227699	0.665037	-0.632480	3.200898
-39.000000	-1.427444	-1.987473	0.870694	-0.286392	-0.759383	-0.402138	-0.173609	0.860632	-0.139043	-0.719355	-0.896448	0.335656	0.894985	-0.143292	-0.464856	-1.220575	0.003248	0.435669	0.960116	-0.031730	-0.272293	-0.588849	1.119038	1.447566	0.996361	0.101436	-0.029235	0.030704	0.534199	0.036980	0.253858	0.660973	-0.803771	3.306335
-38.000000	-1.345101	-1.903137	0.790943	-0.228681	-0.720313	-0.399850	-0.148110	0.790640	-0.159565	-0.722710	-0.799607	0.501781	0.813741	-0.197986	-0.429678	-1.012300	0.120672	0.369347	0.901363	-0.068385	-0.258782	-0.339142	0.628079	1.503397	0.903717	0.048094	-0.066288	0.145339	0.494828	0.027772	0.190645	0.569277	-0.794393	3.362061
-37.000000	-1.117723	-1.738841	0.704029	-0.125905	-0.566508	-0.356807	-0.140817	0.710139	-0.149673	-0.651144	-0.566636	0.558866	0.710934	-0.197245	-0.351996	-0.512657	0.270708	0.235654	0.816669	-0.063720	-0.225636	-0.123318	0.031165	1.354402	0.798568	0.004702	-0.129437	0.181872	0.411037	-0.106385	0.001213	0.334490	-0.436292	3.340887
-36.000000	-0.860620	-1.540907	0.626957	-0.022115	-0.391124	-0.315494	-0.147082	0.635513	-0.096226	-0.547924	-0.306592	0.487825	0.625783	-0.065697	-0.273810	0.031918	0.476112	0.019565	0.744660	0.029544	-0.212023	-0.001233	-0.358393	1.016895	0.732224	0.004185	-0.209989	0.123891	0.300008	-0.300900	-0.238507	0.033554	0.021188	3.218528
-35.000000	-0.699112	-1.387583	0.544575	0.038154	-0.274503	-0.265303	-0.095813	0.556684	-0.050828	-0.450936	-0.163470	0.446704	0.555433	0.125833	-0.247006	0.227668	0.900533	-0.148983	0.676425	0.159954	-0.240686	0.032509	-0.378202	0.683880	0.685983	0.033179	-0.321068	0.061033	0.109202	-0.466198	-0.434570	-0.213486	0.252212	3.010405
-34.000000	-0.687628	-1.265205	0.469313	0.072679	-0.188851	-0.177171	0.092490	0.473279	-0.045736	-0.359224	-0.172497	0.567459	0.487471	0.229507	-0.265727	-0.089496	1.501169	-0.217079	0.599348	0.224718	-0.285758	-0.013657	-0.126173	0.534064	0.615894	0.046366	-0.426565	0.126771	-0.226689	-0.583973	-0.547775	-0.361325	0.229994	2.798783
-33.000000	-0.772234	-1.110253	0.413916	0.144160	-0.094440	-0.131138	0.269518	0.409038	-0.004021	-0.255237	-0.235691	0.693252	0.428777	0.249030	-0.263050	-0.581014	1.884655	-0.271072	0.509655	0.243288	-0.288484	-0.085030	0.126934	0.399872	0.520885	0.070551	-0.437029	0.337301	-0.559932	-0.646436	-0.563246	-0.402521	0.172508	2.604241
-32.000000	-0.876972	-0.930479	0.349207	0.226742	0.000904	-0.210768	0.263757	0.353904	0.108545	-0.138642	-0.238410	0.660474	0.361647	0.303286	-0.209115	-0.781024	1.913267	-0.412959	0.386887	0.309881	-0.239391	-0.176173	0.390648	0.177502	0.397163	0.169454	-0.365419	0.364200	-0.620245	-0.650974	-0.519796	-0.367101	0.218444	2.415911
-31.000000	-0.988435	-0.758853	0.280659	0.258522	0.095049	-0.321435	0.135339	0.300308	0.190780	-0.021884	-0.085876	0.512292	0.289234	0.353030	-0.118239	-0.468007	1.714536	-0.571073	0.257324	0.380972	-0.173137	-0.270862	0.733259	-0.028368	0.271189	0.283017	-0.304566	-0.017719	-0.414451	-0.644821	-0.498958	-0.368825	0.312329	2.300057
-30.000000	-1.099075	-0.642731	0.294778	0.259366	0.191634	-0.339742	-0.013532	0.329962	0.178125	0.088370	0.213142	0.320529	0.306225	0.240266	0.003313	0.269176	1.247402	-0.629530	0.241429	0.312304	-0.100390	-0.206496	0.771864	-0.266248	0.263586	0.237006	-0.276562	-0.418083	-0.186022	-0.639825	-0.508456	-0.441788	0.287856	2.279946
-29.000000	-1.135632	-0.559511	0.385770	0.287592	0.270241	-0.263143	-0.087686	0.438238	0.133698	0.186586	0.488493	0.190561	0.408530	0.017006	0.121098	1.005756	0.625717	-0.638647	0.333869	0.104997	-0.029334	0.039095	0.225566	-0.518244	0.361636	0.008508	-0.251725	-0.507741	-0.013663	-0.629741	-0.505343	-0.492547	0.046882	2.272709
-28.000000	-1.066425	-0.483173	0.469715	0.350406	0.296997	-0.170465	-0.142927	0.526577	0.127940	0.239416	0.582331	0.134131	0.493156	-0.112205	0.189693	1.294497	0.121680	-0.621757	0.405833	-0.066128	0.030774	0.245970	-0.615758	-0.556554	0.434016	-0.204059	-0.201770	-0.386055	0.193479	-0.626230	-0.466877	-0.416225	-0.270061	2.263216
-27.000000	-0.937694	-0.505729	0.555659	0.387972	0.247394	-0.142029	-0.348681	0.593804	0.164293	0.223082	0.521352	0.012425	0.571447	-0.073943	0.209880	1.119597	-0.237463	-0.506552	0.449190	-0.083219	0.080285	0.259468	-1.303901	-0.363006	0.475431	-0.264421	-0.128580	-0.229493	0.418860	-0.604095	-0.375600	-0.185731	-0.347565	2.390447
-26.000000	-0.839517	-0.648886	0.584232	0.335781	0.124611	-0.165777	-0.574313	0.604048	0.212257	0.169914	0.447300	-0.144314	0.596049	0.081244	0.184839	0.754911	-0.462721	-0.357402	0.445865	0.008358	0.125515	0.152152	-1.553228	-0.069094	0.459571	-0.203124	-0.056378	-0.118582	0.591598	-0.554174	-0.246835	0.116102	-0.178535	2.702223
-25.000000	-0.858122	-0.840757	0.472844	0.200574	-0.051200	-0.218263	-0.599719	0.491415	0.251896	0.093967	0.421937	-0.197179	0.483763	0.258998	0.114620	0.368292	-0.519535	-0.324384	0.342685	0.108610	0.171300	0.040897	-1.251557	0.276609	0.341432	-0.103471	0.006063	-0.029218	0.740396	-0.496319	-0.113588	0.417017	-0.174725	3.009897
-24.000000	-0.958931	-1.034311	0.317731	0.038497	-0.240193	-0.278602	-0.429333	0.331541	0.258153	-0.029867	0.312718	-0.063171	0.323203	0.366191	0.015477	-0.032016	-0.486842	-0.436727	0.199523	0.173607	0.196809	-0.053938	-0.497433	0.572955	0.200296	-0.025806	0.059255	0.071555	0.886520	-0.430782	0.005117	0.668801	-0.535626	3.101290
-23.000000	-1.057555	-1.229271	0.219119	-0.090942	-0.384483	-0.277675	-0.200800	0.229428	0.205555	-0.192015	0.040850	0.192563	0.214807	0.383037	-0.091086	-0.436669	-0.424158	-0.587807	0.100398	0.208966	0.184021	-0.123544	0.496026	0.714240	0.108260	0.016576	0.092341	0.168515	0.982755	-0.367063	0.084224	0.821387	-1.026266	2.944232
-22.000000	-1.162122	-1.432509	0.173616	-0.125493	-0.452137	-0.262181	-0.084187	0.196343	0.136012	-0.322549	-0.194627	0.291630	0.178054	0.390310	-0.143627	-0.648167	-0.441008	-0.657566	0.068922	0.245186	0.168970	-0.127121	1.487094	0.697649	0.071723	0.048186	0.100462	0.221882	0.964998	-0.331693	0.095184	0.848768	-1.329797	2.658167
-21.000000	-1.315193	-1.579026	0.106040	-0.098808	-0.415252	-0.298188	-0.096628	0.143300	0.120625	-0.332635	-0.205186	0.126904	0.150459	0.505196	-0.077751	-0.509484	-0.613330	-0.706466	0.050886	0.343637	0.223137	-0.062242	2.252018	0.573004	0.047086	0.114980	0.128928	0.221900	0.814164	-0.346136	0.022708	0.711354	-1.336118	2.347559
-20.000000	-1.474763	-1.622910	-0.033374	-0.140481	-0.286055	-0.296488	-0.152832	0.007567	0.127070	-0.230676	-0.009396	-0.063296	0.052155	0.673630	0.054281	-0.170765	-0.636351	-0.782946	-0.005364	0.484851	0.335527	0.044576	2.621207	0.392869	-0.005827	0.210030	0.189202	0.205590	0.582897	-0.401177	-0.106756	0.438005	-1.107003	2.089489
-19.000000	-1.550979	-1.526222	-0.153921	-0.255050	-0.151187	-0.218119	-0.130878	-0.123939	0.057838	-0.133820	0.175274	0.035640	-0.074545	0.649601	0.138903	0.063075	-0.278664	-0.769420	-0.052027	0.528012	0.415376	0.186881	2.441328	0.233750	-0.047028	0.250809	0.223357	0.225745	0.357350	-0.449872	-0.225053	0.157783	-0.827402	1.982534
-18.000000	-1.539501	-1.290986	-0.165556	-0.333301	-0.045538	-0.098519	0.029300	-0.151783	-0.106188	-0.087418	0.231329	0.368669	-0.126431	0.315737	0.166283	0.160849	0.135815	-0.715724	-0.026216	0.380248	0.451463	0.429075	1.716574	0.161913	-0.020223	0.189820	0.233924	0.342412	0.215024	-0.471700	-0.297871	-0.051476	-0.658584	2.018171
-17.000000	-1.500862	-1.042518	-0.087186	-0.360621	0.061868	0.017554	0.107315	-0.084288	-0.299607	-0.019604	0.387893	0.438248	-0.080502	-0.150353	0.198503	0.502845	0.291767	-0.671616	0.060334	0.114015	0.489600	0.817202	0.702030	0.141774	0.063676	0.062325	0.256962	0.528744	0.117562	-0.492430	-0.360995	-0.209631	-0.488014	2.119953
-16.000000	-1.477037	-0.886277	-0.026200	-0.362540	0.181480	0.091078	-0.138590	-0.031636	-0.388640	0.132662	0.847700	-0.062021	-0.044332	-0.401792	0.293766	1.328857	0.282259	-0.567518	0.097839	-0.068651	0.546343	1.239802	-0.179285	-0.044834	0.105524	-0.039280	0.285474	0.634416	-0.057982	-0.520132	-0.437946	-0.332504	-0.214244	2.303136
-15.000000	-1.479848	-0.853185	-0.124813	-0.323477	0.282463	0.092408	-0.601389	-0.140102	-0.256634	0.317575	1.338347	-0.775630	-0.155447	-0.224853	0.459312	2.256884	0.190702	-0.530121	-0.040920	-0.028066	0.632585	1.619914	-0.480300	-0.464079	-0.016840	-0.023367	0.320791	0.658623	-0.249695	-0.535724	-0.487462	-0.377652	-0.036721	2.568785
-14.000000	-1.433290	-0.900997	-0.347652	-0.258155	0.312161	0.020292	-0.839534	-0.377262	0.003387	0.385729	1.265585	-0.983991	-0.371695	0.205470	0.562959	2.426427	0.090112	-0.638764	-0.295646	0.183444	0.702298	1.747530	-0.046711	-0.758506	-0.262971	0.139105	0.346375	0.670224	-0.296413	-0.487315	-0.454827	-0.307370	-0.120339	2.797134
-13.000000	-1.304003	-0.936408	-0.525524	-0.237511	0.255426	-0.052540	-0.675838	-0.569377	0.144995	0.286107	0.613911	-0.592689	-0.543523	0.524714	0.507118	1.601590	0.051162	-0.722925	-0.493263	0.409224	0.682128	1.387215	0.805408	-0.602127	-0.452914	0.391846	0.346093	0.613625	-0.192834	-0.313661	-0.293427	-0.111998	-0.342356	2.898878
-12.000000	-1.207529	-0.939177	-0.558429	-0.296208	0.147162	-0.089158	-0.370761	-0.594400	0.048928	0.117190	-0.017784	-0.125777	-0.571417	0.530114	0.375485	0.525717	-0.005551	-0.601055	-0.507008	0.508998	0.594239	0.792623	1.485084	-0.085076	-0.461472	0.543535	0.339221	0.493121	-0.035988	-0.089068	-0.066060	0.120499	-0.534122	2.875935
-11.000000	-1.229102	-0.997036	-0.443929	-0.393497	0.005393	-0.148053	-0.133067	-0.440440	-0.181132	-0.040684	-0.320147	0.203404	-0.428002	0.275833	0.256697	-0.171926	-0.003764	-0.286549	-0.323516	0.468468	0.506381	0.315089	1.615511	0.401631	-0.295125	0.497525	0.330520	0.384712	0.100736	0.077617	0.106761	0.289689	-0.652764	2.818786
-10.000000	-1.350423	-1.149376	-0.287570	-0.497562	-0.164334	-0.311805	-0.145990	-0.242873	-0.352324	-0.165574	-0.351939	0.277760	-0.232654	0.012565	0.183922	-0.287811	0.031868	0.099208	-0.108034	0.403841	0.461126	0.097432	1.321855	0.507802	-0.095380	0.423188	0.348080	0.375205	0.224394	0.237501	0.265300	0.472599	-0.636230	2.941801
-9.000000	-1.473208	-1.265993	-0.256581	-0.551676	-0.287782	-0.461370	-0.424993	-0.196804	-0.359890	-0.210056	-0.207868	-0.018981	-0.187772	-0.072561	0.187057	0.061991	-0.158960	0.417538	-0.062550	0.405599	0.483793	0.155925	0.965913	0.183703	-0.044689	0.435671	0.418039	0.492833	0.363442	0.440861	0.481428	0.747942	-0.522984	3.286831
-8.000000	-1.513632	-1.269228	-0.378290	-0.493328	-0.322175	-0.422220	-0.659889	-0.323609	-0.234948	-0.163936	-0.033538	-0.362932	-0.317475	-0.016311	0.229294	0.390057	-0.609518	0.565811	-0.197813	0.444835	0.553691	0.333549	0.763733	-0.254105	-0.169494	0.483675	0.490545	0.655121	0.477556	0.637366	0.694713	1.022494	-0.527406	3.660689
-7.000000	-1.512151	-1.246118	-0.421122	-0.410468	-0.349571	-0.340328	-0.677124	-0.381017	-0.111656	-0.120319	0.006199	-0.464300	-0.374780	0.035547	0.228967	0.366298	-1.016824	0.639313	-0.274934	0.452668	0.607178	0.456835	0.654447	-0.480583	-0.246254	0.519071	0.500018	0.741622	0.449874	0.802893	0.826749	1.139868	-0.599339	3.988110
-6.000000	-1.541754	-1.231562	-0.278366	-0.448589	-0.418517	-0.391430	-0.510882	-0.253262	-0.093425	-0.150795	-0.117890	-0.368159	-0.244967	0.018106	0.173694	0.089443	-1.086447	0.714776	-0.163705	0.435940	0.609082	0.515330	0.541503	-0.529586	-0.136568	0.542302	0.451970	0.727214	0.271265	0.937538	0.868165	1.069578	-0.496128	4.227386
-5.000000	-1.604007	-1.200179	-0.112740	-0.583336	-0.482225	-0.477386	-0.246661	-0.085704	-0.149561	-0.240933	-0.284976	-0.179274	-0.078669	-0.026563	0.074535	-0.244262	-0.886170	0.759165	0.006450	0.424233	0.555061	0.544393	0.445035	-0.508992	0.045514	0.563842	0.385498	0.691554	0.082098	1.010748	0.853791	0.949722	-0.190117	4.318680
-4.000000	-1.681522	-1.184491	-0.028730	-0.705265	-0.478467	-0.497959	-0.099719	0.011530	-0.237972	-0.329819	-0.347923	-0.084495	0.019463	-0.073212	-0.052875	-0.415061	-0.661094	0.766125	0.126289	0.410449	0.461713	0.531451	0.335982	-0.372793	0.194243	0.595652	0.328810	0.674538	-0.029947	1.032066	0.849966	0.943067	0.225864	4.334986
-3.000000	-1.761000	-1.235305	-0.026681	-0.787912	-0.386241	-0.459870	-0.189463	0.022680	-0.334198	-0.360536	-0.236054	-0.216051	0.040257	-0.079137	-0.140325	-0.233435	-0.509198	0.688999	0.182981	0.412688	0.385567	0.505326	0.101169	-0.087361	0.272290	0.631310	0.312362	0.665425	-0.114786	1.022381	0.870108	1.044009	0.656259	4.284006
-2.000000	-1.811921	-1.324576	-0.093753	-0.849853	-0.240140	-0.372492	-0.393207	-0.037567	-0.408775	-0.310985	0.002101	-0.465554	-0.017138	-0.044354	-0.140329	0.215325	-0.392387	0.533881	0.169769	0.429203	0.365407	0.520503	-0.264949	0.299532	0.248752	0.637313	0.342747	0.650786	-0.242719	0.977513	0.868951	1.148920	0.913936	4.099050
-1.000000	-1.777514	-1.391456	-0.178987	-0.837976	-0.064900	-0.242143	-0.576568	-0.125863	-0.437498	-0.197718	0.224118	-0.678497	-0.106680	-0.085813	-0.079628	0.650444	-0.278553	0.350533	0.095651	0.383163	0.370692	0.605725	-0.666057	0.642886	0.150942	0.595861	0.384752	0.647301	-0.373180	0.920653	0.838666	1.237647	0.842116	3.794887
0.000000	-1.638613	-1.448001	-0.225102	-0.738315	0.114688	-0.046523	-0.576276	-0.190387	-0.412892	-0.104661	0.306092	-0.637535	-0.155248	-0.220853	-0.032426	0.758757	-0.080298	0.151561	0.017554	0.239182	0.344941	0.729712	-1.099840	0.850201	0.061545	0.499629	0.379597	0.685258	-0.437147	0.855458	0.775885	1.274058	0.512348	3.466144
1.000000	-1.514288	-1.506958	-0.279971	-0.681393	0.230283	0.161105	-0.364226	-0.254410	-0.362980	-0.097900	0.208437	-0.284127	-0.207667	-0.260359	-0.034433	0.404724	0.343148	0.074510	-0.060226	0.133994	0.292446	0.815102	-1.612389	1.017531	-0.000923	0.421306	0.320750	0.757506	-0.382482	0.797416	0.701114	1.225365	0.088315	3.250241
2.000000	-1.538720	-1.551165	-0.418650	-0.689226	0.271103	0.263967	-0.188651	-0.376982	-0.297271	-0.119600	0.083857	0.054149	-0.353020	-0.076103	-0.024320	-0.002351	0.838595	0.165728	-0.191827	0.205992	0.283043	0.837712	-2.156772	1.135271	-0.094369	0.448592	0.279978	0.831465	-0.202232	0.782769	0.663479	1.135559	-0.294776	3.190819
3.000000	-1.673311	-1.581380	-0.596120	-0.663138	0.295446	0.277421	-0.170480	-0.536062	-0.233531	-0.091583	0.165945	0.145924	-0.552303	0.181864	0.059828	0.083497	1.027494	0.235174	-0.355072	0.355750	0.337784	0.845332	-2.585726	1.074437	-0.233919	0.515811	0.298335	0.878831	0.030183	0.780219	0.649056	1.034295	-0.532951	3.175436
4.000000	-1.768339	-1.558943	-0.679013	-0.614354	0.288485	0.237341	-0.241093	-0.613373	-0.242568	-0.049471	0.395231	0.043128	-0.655060	0.231250	0.161259	0.567064	0.807966	0.207287	-0.438150	0.370961	0.393125	0.849820	-2.675943	0.949182	-0.322117	0.516020	0.333520	0.882288	0.251896	0.751791	0.640591	0.980215	-0.615178	3.204804
5.000000	-1.753569	-1.455621	-0.586775	-0.620833	0.205091	0.157558	-0.300454	-0.527771	-0.393781	-0.080628	0.507599	-0.078788	-0.572764	-0.097699	0.178308	0.924453	0.432202	0.199084	-0.377574	0.150747	0.387872	0.801149	-2.206723	0.975009	-0.280739	0.408133	0.332244	0.844378	0.445970	0.701058	0.657621	1.025242	-0.574979	3.443605
6.000000	-1.693020	-1.280098	-0.422406	-0.721152	0.070030	0.121478	-0.237679	-0.380803	-0.650781	-0.180678	0.454922	-0.084695	-0.417135	-0.668690	0.106874	0.890920	0.101259	0.326334	-0.267494	-0.196899	0.324944	0.710048	-1.219086	1.128508	-0.191206	0.216796	0.303235	0.796993	0.613417	0.638813	0.690860	1.116392	-0.394122	3.891689
7.000000	-1.687194	-1.080965	-0.361023	-0.879031	-0.095206	0.090521	-0.103509	-0.339027	-0.852547	-0.279617	0.390916	-0.065809	-0.356679	-1.102301	0.022409	0.725327	-0.156351	0.442379	-0.257384	-0.458889	0.274158	0.706940	-0.062753	1.289129	-0.185579	0.033256	0.289301	0.808576	0.758038	0.579421	0.725665	1.187826	-0.218472	4.306978
8.000000	-1.749608	-0.962752	-0.441926	-0.999786	-0.280478	-0.050553	-0.006424	-0.443326	-0.898646	-0.358693	0.352872	-0.086353	-0.435656	-1.189292	-0.018899	0.694592	-0.298566	0.331532	-0.361751	-0.517164	0.290058	0.858638	0.907413	1.391440	-0.286799	-0.049243	0.315754	0.915687	0.874516	0.536146	0.757186	1.210080	-0.281301	4.446075
9.000000	-1.831535	-0.919065	-0.555356	-1.051629	-0.446186	-0.244688	0.080717	-0.581120	-0.845987	-0.422618	0.292887	-0.064157	-0.554635	-1.045333	-0.004793	0.643366	-0.478728	0.150755	-0.457546	-0.396130	0.357243	1.081254	1.441971	1.354462	-0.382892	0.003697	0.389524	1.080401	0.910464	0.543526	0.781327	1.170807	-0.445428	4.356886
10.000000	-1.944930	-0.920920	-0.601561	-1.104271	-0.583511	-0.403957	0.133229	-0.633700	-0.802504	-0.466860	0.274819	-0.016665	-0.598895	-0.871324	0.037616	0.493692	-0.790764	0.115018	-0.458733	-0.202168	0.437553	1.281715	1.465584	1.204685	-0.374867	0.151810	0.477108	1.243281	0.836140	0.642319	0.839119	1.141944	-0.501808	4.232334
11.000000	-2.154349	-1.012861	-0.623230	-1.196822	-0.698046	-0.526436	0.059824	-0.636611	-0.804142	-0.493669	0.380199	-0.011158	-0.600165	-0.749843	0.061783	0.441276	-0.771014	0.190731	-0.429005	-0.026764	0.495709	1.362089	1.159981	1.055244	-0.330358	0.295773	0.533814	1.326201	0.719952	0.796484	0.958761	1.226651	-0.511098	4.089568
12.000000	-2.405065	-1.123335	-0.668932	-1.262388	-0.758641	-0.565788	-0.066251	-0.656065	-0.811321	-0.496174	0.506993	-0.030925	-0.626652	-0.686109	0.050855	0.542052	-0.150653	0.324677	-0.462974	0.057842	0.505131	1.329272	0.741711	0.853592	-0.372471	0.341094	0.560272	1.325781	0.622288	0.917981	1.080653	1.383550	-0.540748	3.917247
13.000000	-2.520907	-1.153486	-0.682237	-1.218467	-0.732124	-0.449895	-0.043341	-0.665785	-0.787280	-0.478527	0.492205	0.065677	-0.648629	-0.677901	0.017988	0.570863	0.686740	0.521174	-0.546596	0.033728	0.453590	1.274755	0.305031	0.494015	-0.486181	0.282010	0.555355	1.301262	0.536176	0.935170	1.105977	1.459643	-0.492170	3.834859
14.000000	-2.439234	-1.106909	-0.640050	-1.050702	-0.608052	-0.231975	0.145143	-0.639696	-0.705005	-0.433091	0.397848	0.345454	-0.628689	-0.634240	-0.005797	0.405463	1.348008	0.696922	-0.614340	-0.002740	0.374204	1.167017	-0.173646	0.031770	-0.568901	0.181451	0.508687	1.222122	0.421480	0.828973	1.002613	1.405908	-0.311053	3.930038
15.000000	-2.265509	-0.985299	-0.625180	-0.869243	-0.420110	-0.064687	0.342891	-0.627073	-0.592602	-0.352285	0.360922	0.674849	-0.621247	-0.472964	-0.004315	0.238253	1.741925	0.651895	-0.654945	0.026955	0.317167	0.963488	-0.639233	-0.290693	-0.608629	0.110435	0.453209	1.058555	0.318506	0.687224	0.844207	1.303533	-0.170404	4.141704
16.000000	-2.119458	-0.826972	-0.678387	-0.786829	-0.238463	-0.010427	0.437152	-0.663597	-0.501337	-0.274759	0.340260	0.915751	-0.665881	-0.234635	0.005942	0.109519	1.852829	0.364687	-0.672712	0.137597	0.274036	0.680940	-0.895571	-0.219722	-0.634476	0.135371	0.421861	0.866225	0.348662	0.609565	0.713627	1.209205	-0.237169	4.265614
17.000000	-2.038992	-0.710374	-0.744722	-0.760552	-0.105676	-0.025534	0.399078	-0.709338	-0.431195	-0.219870	0.278526	0.995434	-0.719016	-0.013607	0.022691	-0.077604	1.644926	0.028762	-0.651161	0.297928	0.242612	0.382033	-0.866301	0.140892	-0.620145	0.247368	0.416253	0.716374	0.498472	0.587738	0.648376	1.146627	-0.476484	4.095195
18.000000	-1.987430	-0.652085	-0.775210	-0.731645	-0.019946	-0.081516	0.253755	-0.732564	-0.399268	-0.177631	0.247933	0.881146	-0.743601	0.051880	0.052730	-0.156042	1.233318	-0.223586	-0.607649	0.380119	0.237662	0.177643	-0.592332	0.524794	-0.564019	0.346444	0.422371	0.644912	0.648597	0.575461	0.643986	1.121774	-0.737891	3.667785
19.000000	-1.930112	-0.669149	-0.745108	-0.717589	0.022709	-0.167310	0.004559	-0.709868	-0.442911	-0.159097	0.300561	0.563778	-0.713395	-0.107305	0.064747	0.054287	0.854085	-0.327386	-0.557760	0.284492	0.241142	0.150046	-0.157317	0.843608	-0.500176	0.354948	0.427033	0.652097	0.749284	0.563912	0.668496	1.104701	-0.850275	3.264087
20.000000	-1.891186	-0.768187	-0.673936	-0.732756	0.008547	-0.258016	-0.300019	-0.641290	-0.531237	-0.178359	0.356832	0.169911	-0.639907	-0.362546	0.031301	0.376461	0.614818	-0.261719	-0.498476	0.088115	0.241539	0.262664	0.347666	1.072031	-0.443076	0.282130	0.441348	0.719530	0.830235	0.556607	0.705843	1.075132	-0.756008	3.115498
21.000000	-1.890054	-0.841174	-0.597112	-0.752154	-0.068343	-0.382811	-0.472090	-0.570172	-0.575133	-0.233069	0.298735	-0.024628	-0.565200	-0.534401	-0.019031	0.491011	0.494443	-0.091598	-0.437270	-0.053123	0.245890	0.436206	0.762304	1.144222	-0.399383	0.193516	0.467802	0.812838	0.877000	0.534341	0.735407	1.013032	-0.529732	3.204727
22.000000	-1.897883	-0.816168	-0.523293	-0.758667	-0.183856	-0.550971	-0.418346	-0.514389	-0.562178	-0.301413	0.150842	0.019656	-0.500591	-0.564589	-0.050364	0.445501	0.441853	0.106361	-0.378247	-0.090637	0.266485	0.728646	0.857720	1.008202	-0.373732	0.136092	0.502977	0.927848	0.798882	0.474866	0.722206	0.897186	-0.256660	3.425523
23.000000	-1.879488	-0.809639	-0.452381	-0.751226	-0.290433	-0.704446	-0.300812	-0.455832	-0.533547	-0.360177	0.034131	0.048947	-0.438340	-0.506151	-0.048849	0.534337	0.259356	0.326330	-0.323034	-0.072514	0.320535	1.249981	0.588197	0.724330	-0.349065	0.116254	0.557065	1.109579	0.588069	0.401559	0.667638	0.749625	-0.052132	3.697066
24.000000	-1.849433	-0.951404	-0.384616	-0.705496	-0.356146	-0.789919	-0.234758	-0.388588	-0.464310	-0.389995	-0.005970	-0.026151	-0.370293	-0.400808	-0.030212	0.762380	-0.119011	0.557197	-0.264107	-0.025777	0.397146	1.792475	0.159643	0.372294	-0.302464	0.128803	0.616047	1.328866	0.373550	0.362312	0.601167	0.607577	-0.023091	3.935183
25.000000	-1.860421	-1.215845	-0.322631	-0.627322	-0.394752	-0.785286	-0.289549	-0.318854	-0.327665	-0.363211	0.025623	-0.178946	-0.288846	-0.237012	-0.005755	0.974756	-0.416728	0.814277	-0.186896	0.065528	0.458060	1.884144	-0.212933	0.044574	-0.217680	0.180337	0.660209	1.421782	0.281289	0.384850	0.557580	0.497320	-0.076691	4.123778
26.000000	-1.916295	-1.478532	-0.251793	-0.549568	-0.410515	-0.710389	-0.469581	-0.234725	-0.163081	-0.280214	0.094535	-0.358908	-0.187532	-0.020133	0.032701	1.096171	-0.457906	1.065086	-0.093949	0.213305	0.500993	1.430794	-0.591472	-0.096262	-0.109378	0.275295	0.682237	1.267355	0.292963	0.445827	0.540376	0.442592	-0.005551	4.172228
27.000000	-1.981380	-1.669336	-0.175492	-0.484470	-0.390389	-0.584112	-0.555950	-0.146137	-0.042047	-0.184485	0.130786	-0.350430	-0.090380	0.214798	0.071215	0.997391	-0.329362	1.161404	-0.005812	0.411545	0.541617	0.802774	-1.113653	-0.020977	-0.015063	0.398177	0.671975	0.963138	0.295440	0.490401	0.535161	0.453654	0.124011	3.992564
28.000000	-2.059696	-1.824213	-0.134991	-0.465655	-0.352757	-0.479959	-0.557097	-0.094539	-0.002444	-0.117642	0.173496	-0.194594	-0.049519	0.423902	0.112822	0.813830	-0.105928	1.083982	0.043729	0.630147	0.583923	0.420133	-1.637689	0.072258	0.044607	0.551631	0.643584	0.718162	0.199079	0.519036	0.552377	0.490025	0.181424	3.762058
29.000000	-2.158673	-1.974062	-0.146486	-0.493059	-0.288514	-0.465581	-0.718466	-0.092965	-0.003739	-0.073071	0.366764	-0.251876	-0.077738	0.529444	0.182376	0.962397	0.206763	0.920339	0.023137	0.796507	0.632802	0.477726	-1.879098	-0.041966	0.044051	0.737853	0.632665	0.613425	-0.027504	0.536868	0.565390	0.464294	0.276655	3.661724
30.000000	-2.248847	-2.066612	-0.172366	-0.483011	-0.172076	-0.504327	-1.044313	-0.114858	0.015493	-0.025903	0.637057	-0.605313	-0.128677	0.449383	0.270405	1.498746	0.495804	0.684416	-0.034777	0.789292	0.674426	0.855543	-1.673319	-0.279170	0.000290	0.834719	0.631266	0.651472	-0.288509	0.476636	0.515910	0.361221	0.356047	3.661824
31.000000	-2.306624	-2.047693	-0.160862	-0.430502	-0.042527	-0.520617	-1.318570	-0.104761	0.033966	0.012989	0.731659	-0.933159	-0.131959	0.213674	0.304476	1.902603	0.614873	0.472642	-0.027465	0.556235	0.663318	1.182034	-1.085737	-0.277249	0.016383	0.692133	0.585858	0.814381	-0.461401	0.356866	0.418703	0.276331	0.248259	3.662456
32.000000	-2.305960	-1.926872	-0.069721	-0.408638	0.054468	-0.485974	-1.455976	-0.008683	-0.020074	0.023702	0.638019	-1.061224	-0.031257	-0.051397	0.243209	1.684644	0.521887	0.464337	0.105676	0.251675	0.585220	1.157262	-0.494646	-0.006867	0.155326	0.430218	0.514172	1.039805	-0.564265	0.334706	0.379652	0.307575	0.072644	3.621196
33.000000	-2.228804	-1.742547	0.083587	-0.407573	0.120881	-0.466840	-1.474688	0.146746	-0.148678	0.008865	0.495876	-1.047225	0.144972	-0.267640	0.135903	1.010745	0.268452	0.581097	0.302002	0.039358	0.484222	0.909044	-0.186762	0.193478	0.350983	0.259674	0.469539	1.241935	-0.579902	0.437871	0.425268	0.440161	-0.018944	3.552359
34.000000	-2.091957	-1.532055	0.214432	-0.384124	0.186219	-0.492876	-1.270622	0.279071	-0.270113	-0.014358	0.246349	-0.818563	0.301012	-0.408956	0.021937	0.217553	-0.031512	0.646321	0.452172	-0.059966	0.379459	0.658240	-0.018651	0.255754	0.501290	0.207712	0.417682	1.154237	-0.380940	0.568349	0.472455	0.594449	0.028139	3.522266
35.000000	-1.921097	-1.396090	0.306731	-0.319783	0.259587	-0.545701	-0.985262	0.361617	-0.288777	-0.014839	-0.121751	-0.548067	0.400655	-0.421632	-0.064075	-0.482472	-0.382278	0.635877	0.539419	-0.054651	0.298025	0.506615	0.086033	0.280455	0.573551	0.240450	0.362195	0.775018	-0.009941	0.696798	0.509116	0.724276	0.373083	3.621461
36.000000	-1.725729	-1.416978	0.390083	-0.207232	0.321927	-0.642446	-0.918406	0.416173	-0.188986	0.022746	-0.386637	-0.554320	0.468247	-0.302377	-0.064946	-0.815831	-0.769401	0.553614	0.597230	0.051658	0.292153	0.449375	0.051061	0.203274	0.594203	0.339482	0.371380	0.547976	0.251479	0.785255	0.527651	0.758320	0.995615	3.848863
37.000000	-1.532265	-1.501124	0.455495	-0.061408	0.355157	-0.753830	-0.994543	0.459738	-0.041465	0.069006	-0.495197	-0.700780	0.527542	-0.081436	0.017235	-0.882234	-1.078012	0.471799	0.631465	0.226658	0.346388	0.304692	-0.048049	0.016114	0.605581	0.477369	0.421776	0.632078	0.236840	0.798279	0.469010	0.648123	1.555889	4.093903
38.000000	-1.355756	-1.541442	0.509319	0.085301	0.351858	-0.813565	-1.061338	0.501409	0.103044	0.097108	-0.579573	-0.783737	0.581851	0.275875	0.114989	-0.972871	-1.333024	0.498550	0.651844	0.463718	0.398806	0.020050	-0.007409	-0.160990	0.629973	0.612260	0.435888	0.696094	0.102283	0.742736	0.335950	0.400802	1.859706	4.269998
39.000000	-1.164542	-1.534995	0.520905	0.201909	0.326268	-0.805361	-1.152939	0.497313	0.259305	0.124611	-0.615638	-0.889803	0.575679	0.778869	0.181673	-0.948603	-1.624783	0.567789	0.630556	0.786618	0.420176	-0.280643	0.375348	-0.222501	0.618131	0.723714	0.392288	0.380973	0.057343	0.612060	0.157919	0.050364	1.957403	4.340994
40.000000	-0.989450	-1.482087	0.453052	0.250358	0.259090	-0.761386	-1.215259	0.417893	0.386024	0.135549	-0.527527	-1.007087	0.485597	1.214786	0.192076	-0.642492	-1.857711	0.617593	0.544151	1.060792	0.394327	-0.492364	1.016492	-0.177593	0.529568	0.779420	0.309830	-0.153539	0.112753	0.436157	-0.025790	-0.263221	1.893156	4.314774
41.000000	-0.915571	-1.384253	0.376575	0.197194	0.111884	-0.707941	-1.131317	0.345449	0.358105	0.051771	-0.403855	-0.941249	0.394654	1.212837	0.102238	-0.357199	-1.644724	0.723067	0.453808	1.038737	0.291926	-0.603349	1.664707	-0.110179	0.432114	0.710907	0.198012	-0.483519	0.225457	0.303450	-0.128848	-0.380889	1.646723	4.202136
42.000000	-0.960779	-1.333219	0.365810	0.082500	-0.089287	-0.666425	-0.967997	0.345966	0.203221	-0.127835	-0.362577	-0.683416	0.371674	0.783201	-0.079656	-0.445764	-0.833228	0.835104	0.416802	0.731456	0.146869	-0.662478	2.111492	-0.020935	0.394170	0.547496	0.083124	-0.499375	0.391066	0.286037	-0.087199	-0.275816	1.194012	3.892438
43.000000	-1.067701	-1.371450	0.367873	-0.004376	-0.276098	-0.660786	-0.807747	0.366727	0.117105	-0.308639	-0.465975	-0.361052	0.380438	0.372017	-0.268846	-0.811952	0.183743	0.805349	0.406585	0.434118	0.039296	-0.705382	2.146742	0.077379	0.389158	0.420429	0.023119	-0.344208	0.528173	0.364725	0.073348	-0.042111	0.619683	3.404772
44.000000	-1.183769	-1.435152	0.303292	-0.071705	-0.409411	-0.700491	-0.669187	0.340067	0.153426	-0.417084	-0.653270	-0.099350	0.348260	0.233083	-0.389557	-1.036539	0.943107	0.617445	0.370702	0.342314	0.017965	-0.686954	1.748772	0.071345	0.371153	0.398865	0.054403	-0.134683	0.559130	0.502849	0.287006	0.223968	0.099956	3.018667
45.000000	-1.290299	-1.542109	0.209373	-0.200624	-0.489795	-0.760560	-0.624519	0.280367	0.187074	-0.451699	-0.743760	-0.001326	0.278268	0.267095	-0.418221	-0.940277	1.211227	0.426024	0.309630	0.394394	0.073743	-0.538857	1.153781	-0.033572	0.335790	0.443131	0.147617	0.092591	0.554782	0.677594	0.501682	0.491454	-0.204260	2.893745
46.000000	-1.394544	-1.719846	0.190496	-0.358579	-0.515824	-0.761967	-0.648980	0.265177	0.138908	-0.456331	-0.734614	0.015507	0.256992	0.319297	-0.387888	-0.811954	0.987203	0.428566	0.291867	0.462024	0.142348	-0.349981	0.602847	-0.115376	0.330360	0.504034	0.237339	0.269178	0.598129	0.832337	0.660954	0.722323	-0.278567	2.937621
47.000000	-1.516679	-1.933829	0.270898	-0.468629	-0.472556	-0.695706	-0.691292	0.326357	0.023742	-0.451838	-0.711480	0.047133	0.321795	0.335065	-0.344957	-0.842677	0.516043	0.604963	0.358486	0.506136	0.186694	-0.230739	0.177531	-0.055626	0.394428	0.564975	0.303456	0.341420	0.626204	0.919796	0.730839	0.860048	-0.184389	3.024443
48.000000	-1.645444	-2.156486	0.405839	-0.495430	-0.371023	-0.673297	-0.836165	0.440500	-0.067188	-0.423899	-0.673440	-0.035821	0.443743	0.363368	-0.300011	-0.853474	0.079525	0.787907	0.476976	0.550149	0.217054	-0.153682	-0.145473	0.194487	0.506531	0.610553	0.361585	0.322306	0.525869	0.932886	0.725482	0.886070	0.105667	3.116957
49.000000	-1.726804	-2.308544	0.586102	-0.391626	-0.243326	-0.721490	-1.143543	0.605450	-0.023970	-0.361020	-0.616006	-0.355120	0.617378	0.446352	-0.238864	-0.697837	-0.251282	0.936159	0.630269	0.593696	0.242041	-0.082644	-0.414131	0.438864	0.645447	0.633379	0.405535	0.266554	0.177075	0.906208	0.664900	0.780800	0.679178	3.283182
50.000000	-1.729062	-2.301957	0.737486	-0.185629	-0.096833	-0.745672	-1.476180	0.754536	0.128824	-0.276737	-0.514443	-0.776061	0.765223	0.530651	-0.139965	-0.389287	-0.535791	1.038584	0.758628	0.598643	0.282554	0.037693	-0.617078	0.468058	0.751811	0.622307	0.422431	0.337268	-0.412554	0.849359	0.556414	0.556783	1.467673	3.562150
51.000000	-1.654595	-2.170474	0.808643	0.012283	0.047384	-0.701027	-1.645606	0.833033	0.252544	-0.213636	-0.395480	-1.116174	0.827252	0.552396	-0.036639	-0.065415	-0.855695	1.070115	0.809029	0.543763	0.335148	0.292796	-0.743612	0.323769	0.793263	0.566206	0.413725	0.617093	-0.946600	0.730413	0.405031	0.311068	2.151883	3.865260
52.000000	-1.500487	-1.995931	0.849155	0.129598	0.154875	-0.586240	-1.554934	0.881952	0.285127	-0.200913	-0.332799	-1.199129	0.863336	0.539684	-0.015530	0.038157	-0.983783	0.981305	0.823031	0.473605	0.333079	0.544694	-0.840182	0.064224	0.822958	0.500518	0.355110	0.738276	-1.119996	0.572106	0.243749	0.135389	2.376191	4.055118
53.000000	-1.315717	-1.835521	0.844585	0.142795	0.201667	-0.419986	-1.229762	0.885978	0.257086	-0.223341	-0.319638	-0.908483	0.863335	0.561695	-0.082668	-0.113027	-0.759697	0.747857	0.813415	0.479171	0.257744	0.571513	-0.997279	-0.216507	0.844752	0.506032	0.249951	0.427330	-0.924495	0.467687	0.143747	0.079781	2.068366	4.073967
54.000000	-1.159213	-1.699147	0.771786	0.066559	0.161364	-0.302089	-0.924402	0.802339	0.174330	-0.244203	-0.266546	-0.522057	0.777075	0.660138	-0.153214	-0.214243	-0.598913	0.523357	0.760357	0.630102	0.184697	0.442765	-1.328927	-0.333250	0.815120	0.656140	0.171911	0.042076	-0.576454	0.464686	0.115970	0.101887	1.530788	4.015651
55.000000	-1.054840	-1.554704	0.669342	-0.048534	0.045196	-0.304847	-0.789023	0.680932	0.067741	-0.244559	-0.143702	-0.327121	0.657617	0.808556	-0.190020	-0.023738	-0.604762	0.411410	0.693096	0.843981	0.141206	0.302666	-1.708610	-0.244170	0.741983	0.821459	0.109735	-0.119290	-0.268864	0.478399	0.083634	0.069828	1.105054	3.972772
56.000000	-0.992949	-1.417699	0.646178	-0.132810	-0.112750	-0.401074	-0.684561	0.652305	0.013605	-0.247707	-0.080560	-0.302737	0.636511	0.875396	-0.231590	0.261081	-0.500442	0.362667	0.701441	0.890297	0.073637	0.167172	-1.832435	-0.002070	0.732568	0.754455	-0.007323	-0.112009	-0.073720	0.409805	0.008359	-0.053040	0.981059	4.002569
57.000000	-0.935397	-1.311661	0.746072	-0.149330	-0.283208	-0.534780	-0.562699	0.753398	0.013543	-0.277207	-0.150514	-0.347221	0.752316	0.741442	-0.307359	0.342356	-0.339144	0.354897	0.800960	0.678287	-0.040777	0.057074	-1.581248	0.410486	0.821446	0.478896	-0.170448	-0.021589	0.027197	0.281799	-0.068559	-0.179027	1.107019	4.173190
58.000000	-0.909848	-1.199966	0.857175	-0.127518	-0.440046	-0.698385	-0.491793	0.869532	0.033057	-0.334537	-0.319982	-0.338387	0.879506	0.473418	-0.414488	0.197558	-0.236944	0.435394	0.878373	0.340606	-0.173654	-0.035919	-1.047111	0.992010	0.891963	0.195953	-0.332919	0.058931	0.070582	0.188699	-0.077069	-0.184192	1.223507	4.430957
59.000000	-1.025316	-1.124870	0.897299	-0.131031	-0.583203	-0.929544	-0.541186	0.914942	0.078205	-0.405593	-0.520698	-0.361413	0.921587	0.280571	-0.513784	0.042550	-0.137380	0.605946	0.865129	0.063260	-0.281442	-0.094532	-0.405074	1.576231	0.872659	0.021980	-0.445813	0.092829	0.056616	0.178865	0.015827	0.016383	1.158259	4.622538
60.000000	-1.335485	-1.223173	0.884408	-0.192302	-0.699864	-1.165611	-0.714368	0.903067	0.157531	-0.456391	-0.618995	-0.544760	0.905248	0.283952	-0.557072	0.065054	-0.006776	0.736314	0.814545	-0.029391	-0.336433	-0.076402	0.155712	1.866782	0.806808	-0.015158	-0.475692	0.121050	0.002894	0.211578	0.172753	0.360178	0.903160	4.674032
61.000000	-1.685031	-1.451504	0.893945	-0.253878	-0.749779	-1.281624	-0.864933	0.916872	0.265450	-0.473548	-0.615191	-0.734784	0.919691	0.426112	-0.568143	0.095231	0.120195	0.743758	0.826537	0.039517	-0.359034	-0.072421	0.451334	1.636247	0.802577	0.047032	-0.448365	0.132828	-0.067053	0.253760	0.337282	0.716920	0.547850	4.673185
62.000000	-1.906406	-1.712502	0.948746	-0.297441	-0.738173	-1.289088	-0.910655	0.979340	0.326596	-0.479354	-0.605124	-0.752054	0.987817	0.558779	-0.582385	-0.027818	0.263845	0.662100	0.907573	0.145770	-0.388845	-0.123397	0.479046	0.999625	0.882859	0.128544	-0.415059	0.143373	-0.093883	0.329568	0.499159	1.079443	0.266339	4.712082
63.000000	-2.017463	-1.955191	0.958891	-0.370334	-0.691630	-1.297503	-0.910645	0.993790	0.272243	-0.482763	-0.598535	-0.627104	1.005641	0.621220	-0.579787	-0.204973	0.428339	0.522874	0.958124	0.241641	-0.413324	-0.186823	0.378188	0.389379	0.946364	0.205860	-0.378313	0.198657	0.003547	0.439305	0.673709	1.476613	0.153041	4.630820
64.000000	-2.073653	-2.046147	0.889102	-0.469910	-0.628919	-1.308426	-0.933866	0.937001	0.156135	-0.476969	-0.564210	-0.543280	0.938218	0.674171	-0.552618	-0.354939	0.466035	0.428058	0.957989	0.356988	-0.399534	-0.282770	0.184978	0.148445	0.966765	0.306987	-0.330732	0.252434	0.177667	0.534713	0.801083	1.789202	0.136415	4.249376
65.000000	-2.080493	-1.916306	0.810856	-0.587559	-0.574230	-1.218931	-0.912788	0.872099	0.011233	-0.478243	-0.519145	-0.480336	0.864274	0.628725	-0.549891	-0.518652	0.355540	0.482721	0.954836	0.418648	-0.382649	-0.386177	-0.033251	0.279042	0.988089	0.390181	-0.302817	0.267522	0.322960	0.575986	0.827158	1.891595	0.212988	3.742457
66.000000	-2.057628	-1.639047	0.777391	-0.693588	-0.519129	-1.037895	-0.778453	0.839438	-0.179739	-0.488108	-0.473014	-0.321268	0.825283	0.347173	-0.606491	-0.728296	0.271281	0.581030	0.948756	0.317398	-0.408841	-0.429867	-0.028007	0.583168	1.010518	0.382039	-0.311073	0.282807	0.394592	0.554515	0.770548	1.814505	0.365689	3.402948
67.000000	-2.019302	-1.345904	0.801246	-0.717492	-0.451531	-0.894840	-0.678223	0.863584	-0.338264	-0.491025	-0.389562	-0.199482	0.832949	-0.013024	-0.683357	-0.809276	0.243999	0.593188	0.949672	0.119651	-0.462245	-0.400760	0.352304	0.809589	1.027210	0.278553	-0.335775	0.309521	0.346522	0.466119	0.627237	1.608721	0.455318	3.354375
68.000000	-1.937899	-1.093191	0.856941	-0.639453	-0.377432	-0.832383	-0.637035	0.910981	-0.363282	-0.480671	-0.339173	-0.165252	0.868616	-0.210709	-0.734851	-0.673400	0.183240	0.558954	0.954886	-0.037745	-0.516711	-0.347964	0.857978	0.802177	1.019448	0.152265	-0.355295	0.299915	0.199295	0.341196	0.426966	1.309591	0.455007	3.513207
69.000000	-1.795979	-0.916449	0.879997	-0.511460	-0.315182	-0.818951	-0.601311	0.914165	-0.278451	-0.438551	-0.383074	-0.174377	0.875279	-0.209516	-0.740596	-0.461502	0.028193	0.566544	0.928654	-0.101163	-0.542826	-0.287297	1.102854	0.668745	0.963110	0.082231	-0.350714	0.268157	0.084351	0.252084	0.274383	1.038651	0.494128	3.687293
70.000000	-1.610096	-0.897492	0.873980	-0.404443	-0.281279	-0.842677	-0.735727	0.897765	-0.166458	-0.369576	-0.418529	-0.379558	0.871011	-0.063617	-0.686934	-0.193149	-0.421341	0.665448	0.912118	-0.039000	-0.493292	-0.145327	0.821039	0.602482	0.916594	0.110430	-0.292770	0.299402	0.009427	0.273527	0.258360	0.929680	0.728332	3.830045
71.000000	-1.464643	-1.109957	0.891226	-0.374923	-0.290229	-0.898987	-1.089811	0.910606	-0.069739	-0.317371	-0.405352	-0.806811	0.907696	0.187737	-0.592909	0.125589	-1.145780	0.870018	0.943277	0.155494	-0.388486	0.097728	0.007352	0.626982	0.952299	0.236391	-0.176410	0.434891	-0.102089	0.447499	0.407885	1.030827	1.120572	3.951973
72.000000	-1.435894	-1.540058	0.939988	-0.438598	-0.377084	-1.001190	-1.403149	0.947044	-0.018574	-0.327440	-0.470762	-1.157014	0.969661	0.400909	-0.532797	0.220721	-1.573471	1.198222	0.998075	0.360111	-0.322936	0.273477	-0.914252	0.684211	1.051059	0.390575	-0.062365	0.588154	-0.179247	0.737794	0.686037	1.308794	1.409200	3.975421
73.000000	-1.497207	-2.054731	1.013639	-0.548546	-0.521648	-1.095937	-1.446231	1.009049	-0.039490	-0.418009	-0.683018	-1.178548	1.037934	0.401999	-0.568688	-0.140383	-1.388224	1.568779	1.071957	0.417632	-0.335413	0.229505	-1.510078	0.789064	1.151532	0.484839	-0.012339	0.657168	-0.121189	1.055841	1.004448	1.666292	1.418024	3.928022
74.000000	-1.597228	-2.457802	1.085234	-0.645756	-0.653903	-1.114975	-1.267914	1.077243	-0.103191	-0.545927	-0.949865	-0.913264	1.096582	0.243444	-0.664145	-0.771605	-0.849828	1.777601	1.135299	0.338855	-0.374081	0.054865	-1.708119	0.953537	1.213246	0.503799	-0.017917	0.660439	0.029103	1.293783	1.243805	1.928689	1.187089	3.939169
75.000000	-1.712954	-2.621125	1.106845	-0.699261	-0.748880	-1.100827	-1.034712	1.105288	-0.147920	-0.641314	-1.129751	-0.564192	1.110889	0.105008	-0.743526	-1.220777	-0.295966	1.757597	1.146317	0.232426	-0.398935	-0.077131	-1.645128	1.154946	1.223225	0.485421	-0.056130	0.626735	0.151564	1.367297	1.308153	1.956816	0.831637	4.056670
76.000000	-1.823112	-2.608452	1.069039	-0.700600	-0.808561	-1.074082	-0.851125	1.077178	-0.149579	-0.686641	-1.136362	-0.294185	1.063386	0.058617	-0.784884	-1.224894	0.109632	1.602587	1.097090	0.150270	-0.420957	-0.106129	-1.458658	1.301143	1.173151	0.449339	-0.120870	0.562650	0.198599	1.312422	1.228783	1.795199	0.458295	4.229371
77.000000	-1.908544	-2.502588	1.037899	-0.654339	-0.839909	-1.022852	-0.758083	1.048494	-0.096093	-0.705166	-1.018589	-0.165434	1.014729	0.101866	-0.800985	-0.939090	0.279912	1.413217	1.043405	0.120971	-0.449611	-0.115339	-1.289512	1.300273	1.111857	0.412832	-0.198282	0.468073	0.176999	1.238032	1.111141	1.584715	0.163863	4.397297
78.000000	-1.973723	-2.307087	1.059557	-0.607070	-0.837605	-0.966576	-0.732972	1.064310	-0.008030	-0.706129	-0.855138	-0.175759	1.030375	0.188723	-0.798517	-0.559033	0.115538	1.229930	1.058386	0.140818	-0.472550	-0.112116	-1.282588	1.185364	1.111551	0.399495	-0.260276	0.366775	0.102158	1.194110	0.992160	1.415918	-0.023145	4.500753
79.000000	-2.053326	-2.076676	1.064156	-0.634011	-0.792375	-0.916377	-0.756457	1.063919	0.016086	-0.686892	-0.632869	-0.321391	1.038308	0.207790	-0.783332	-0.049111	-0.308983	1.120045	1.085280	0.138329	-0.473858	0.027244	-1.370996	1.067916	1.125727	0.397636	-0.289948	0.353157	0.064405	1.164712	0.869539	1.342349	-0.069818	4.484957
80.000000	-2.132068	-1.899461	1.023707	-0.702269	-0.721543	-0.864608	-0.825271	1.023402	-0.051306	-0.646189	-0.420528	-0.537914	0.992605	0.125038	-0.766568	0.423765	-0.672083	1.143241	1.058610	0.077713	-0.468438	0.183435	-1.275598	1.041860	1.096636	0.367296	-0.321557	0.400190	0.124287	1.102675	0.748204	1.372738	0.112402	4.372733
81.000000	-2.082764	-1.795367	1.024266	-0.667460	-0.610968	-0.769439	-0.822604	1.026748	-0.107203	-0.582912	-0.388194	-0.650141	0.991925	0.019843	-0.768275	0.409410	-0.697659	1.201346	1.049439	0.005552	-0.497963	0.069642	-0.894521	1.094989	1.095655	0.288733	-0.418430	0.328600	0.193238	0.977544	0.598580	1.378393	0.417723	4.222611
82.000000	-1.834901	-1.710697	1.104130	-0.477904	-0.428378	-0.636126	-0.710039	1.122102	-0.055242	-0.501820	-0.553304	-0.638719	1.087663	-0.026841	-0.783988	-0.140548	-0.562765	1.283103	1.126197	-0.014969	-0.561108	-0.295965	-0.483831	1.111529	1.190186	0.211535	-0.579729	0.105040	0.167353	0.838867	0.408861	1.240309	0.648713	4.136207
83.000000	-1.493655	-1.566456	1.211081	-0.226868	-0.193743	-0.524564	-0.574353	1.238971	0.096357	-0.399858	-0.763438	-0.582822	1.203217	0.015523	-0.769131	-0.781442	-0.564198	1.418439	1.229416	0.028387	-0.609835	-0.626687	-0.332397	0.940198	1.316184	0.176561	-0.727577	-0.112237	0.051501	0.710650	0.209494	1.003279	0.783787	4.140491
84.000000	-1.198964	-1.381997	1.237532	-0.011113	0.040605	-0.445544	-0.471255	1.258670	0.257503	-0.260218	-0.869912	-0.484285	1.219244	0.142067	-0.693120	-1.150101	-0.643612	1.537524	1.229643	0.102166	-0.609431	-0.711938	-0.505891	0.639321	1.339101	0.156494	-0.798446	-0.144379	-0.117728	0.534869	0.022270	0.780924	0.805635	4.101361
85.000000	-0.991254	-1.260664	1.112072	0.142455	0.258624	-0.363151	-0.520048	1.134845	0.400421	-0.056795	-0.764945	-0.498682	1.086431	0.385194	-0.525247	-1.025438	-0.745820	1.609736	1.085613	0.213315	-0.533015	-0.514378	-0.974915	0.273185	1.198676	0.141903	-0.771486	0.098244	-0.389690	0.292371	-0.150189	0.652631	0.732841	3.954656
86.000000	-0.889841	-1.202039	0.899954	0.242799	0.471623	-0.263103	-0.718595	0.932114	0.560937	0.200762	-0.442003	-0.724002	0.886125	0.731462	-0.274422	-0.425878	-0.949418	1.607962	0.879024	0.367336	-0.377655	-0.151767	-1.596790	-0.256222	0.972855	0.137625	-0.679713	0.515461	-0.737274	0.021397	-0.325196	0.586484	0.741345	3.771971
87.000000	-0.940547	-1.117218	0.738971	0.296688	0.644555	-0.187205	-0.841913	0.769920	0.708218	0.420571	-0.092134	-0.888714	0.741493	0.987074	-0.047870	0.169088	-1.102197	1.426246	0.713065	0.485148	-0.225708	0.088826	-1.836006	-0.800663	0.780713	0.117542	-0.624601	0.714132	-0.893493	-0.214993	-0.498813	0.509827	0.833652	3.650991
88.000000	-1.073206	-0.985609	0.706913	0.348219	0.738566	-0.158261	-0.785358	0.714242	0.814150	0.538484	0.110086	-0.826494	0.700940	1.014983	0.077276	0.363350	-1.049001	0.999121	0.632516	0.510096	-0.153218	0.026172	-1.266990	-1.078515	0.679661	0.061639	-0.662795	0.405087	-0.748558	-0.389970	-0.659877	0.396349	0.782276	3.569936
89.000000	-1.156512	-0.877634	0.742346	0.430527	0.787991	-0.111957	-0.660490	0.721623	0.903553	0.605221	0.197991	-0.729036	0.705076	0.925637	0.147375	0.271762	-0.976747	0.497318	0.605769	0.484191	-0.123509	-0.163088	-0.234790	-1.061510	0.639160	-0.006068	-0.728709	-0.120788	-0.559881	-0.543994	-0.831922	0.221096	0.562867	3.489682
90.000000	-1.182541	-0.865746	0.739056	0.486842	0.815988	-0.024381	-0.568438	0.708207	0.973341	0.669689	0.250461	-0.665642	0.677307	0.839224	0.233640	0.122904	-0.940855	0.116883	0.577055	0.451964	-0.082444	-0.217099	0.668080	-0.974994	0.593268	-0.043464	-0.736949	-0.397944	-0.514534	-0.703075	-1.008841	0.003039	0.360966	3.443062
91.000000	-1.220554	-0.978346	0.700502	0.470162	0.803850	0.039886	-0.515197	0.668186	1.025738	0.721637	0.290866	-0.567137	0.631658	0.808872	0.346974	-0.011302	-0.807843	-0.089764	0.549674	0.431584	-0.016917	-0.054173	0.948008	-0.969248	0.547080	-0.033730	-0.656415	-0.226061	-0.617623	-0.871997	-1.155551	-0.192821	0.228223	3.339286
92.000000	-1.277653	-1.146071	0.688238	0.404772	0.764274	0.045692	-0.456350	0.657422	1.087879	0.769217	0.312412	-0.482173	0.620672	0.914343	0.467009	-0.071291	-0.684035	-0.109526	0.564095	0.476254	0.092133	0.262583	0.229309	-0.965343	0.560928	0.020447	-0.516388	0.310845	-0.819646	-1.066095	-1.291946	-0.362012	0.095288	3.142167
93.000000	-1.315064	-1.252493	0.678801	0.315982	0.728938	0.009765	-0.357811	0.663907	1.145894	0.823582	0.340263	-0.400892	0.628029	1.143833	0.570223	0.023242	-0.598074	0.085384	0.597115	0.590856	0.228322	0.564723	-1.074612	-0.956166	0.616032	0.093529	-0.408124	0.728882	-0.931490	-1.270703	-1.463202	-0.548671	0.011506	3.035101
94.000000	-1.346009	-1.276457	0.604200	0.239562	0.732974	-0.009242	-0.221249	0.620240	1.198736	0.879871	0.458834	-0.299477	0.589684	1.393204	0.645736	0.346692	-0.464030	0.361315	0.588808	0.703245	0.340574	0.697805	-1.951133	-1.038617	0.618775	0.142423	-0.383747	0.579166	-0.826278	-1.474922	-1.686207	-0.764478	0.049246	3.089455
95.000000	-1.397405	-1.257052	0.491727	0.225732	0.777901	-0.017365	-0.139665	0.527497	1.219935	0.944009	0.684325	-0.244244	0.510408	1.459800	0.685004	0.833948	-0.354166	0.510413	0.530416	0.699397	0.408704	0.685885	-1.840687	-1.139636	0.553140	0.107786	-0.401432	0.137176	-0.611469	-1.681073	-1.933427	-0.975581	0.140837	3.169941
96.000000	-1.455791	-1.209207	0.416592	0.268401	0.835645	-0.045145	-0.196039	0.447993	1.073031	0.997606	0.913206	-0.162877	0.455547	1.089797	0.662950	1.169749	-0.222913	0.627517	0.456937	0.480517	0.423870	0.608862	-0.924641	-1.068225	0.482722	-0.044533	-0.420699	-0.128855	-0.374403	-1.866970	-2.151285	-1.139355	0.167109	3.164050
97.000000	-1.463445	-1.107592	0.369922	0.334946	0.931692	0.029063	-0.254204	0.390421	0.791381	1.039925	1.078554	0.011115	0.413903	0.446889	0.619826	1.093746	-0.042962	0.771165	0.371355	0.164089	0.418800	0.507418	0.144329	-0.854933	0.407126	-0.244234	-0.429440	-0.156539	-0.120507	-2.055321	-2.339845	-1.266643	0.088114	3.049436
98.000000	-1.344555	-0.925056	0.348558	0.428495	1.095953	0.272116	-0.217102	0.366891	0.614843	1.109607	1.176628	0.115791	0.378004	0.014853	0.637876	0.702218	-0.040346	0.805306	0.296040	-0.023525	0.448893	0.428415	0.725962	-0.764973	0.334955	-0.382305	-0.426739	-0.046851	0.102238	-2.291924	-2.532025	-1.408241	0.056846	2.918729
99.000000	-1.138184	-0.729426	0.372170	0.512150	1.275138	0.537527	-0.169833	0.382608	0.609329	1.183844	1.159424	0.073787	0.381414	-0.054961	0.700834	0.290201	-0.248860	0.709683	0.276802	-0.038398	0.511019	0.384126	0.693811	-0.783134	0.318809	-0.430646	-0.406519	0.122860	0.318095	-2.558435	-2.719151	-1.536081	0.175637	2.887456
100.000000	-0.975833	-0.614303	0.354127	0.518744	1.406019	0.673785	-0.111791	0.342250	0.667538	1.219648	1.019512	0.044990	0.353638	0.099926	0.775006	0.039805	-0.441214	0.489378	0.251792	0.059478	0.599864	0.337092	0.364004	-0.670041	0.302524	-0.412317	-0.345639	0.272112	0.563893	-2.779254	-2.857319	-1.547415	0.379193	2.935546
101.000000	-0.974138	-0.616420	0.215839	0.440649	1.465885	0.618260	-0.051266	0.192545	0.742297	1.241232	0.852987	0.043180	0.220737	0.449811	0.891115	0.037149	-0.643551	0.152690	0.152200	0.300373	0.743077	0.269941	0.104185	-0.437021	0.204881	-0.311501	-0.226702	0.342867	0.728863	-2.877471	-2.887923	-1.384769	0.564007	3.017668
102.000000	-1.192586	-0.745871	-0.018823	0.285958	1.447219	0.404217	-0.150897	-0.043208	0.824328	1.291448	0.805209	-0.139595	-0.006465	1.010113	1.067005	0.353506	-1.048169	-0.222200	-0.028303	0.718051	0.944337	0.280935	0.171480	-0.200833	0.016277	-0.119788	-0.038484	0.396121	0.725924	-2.876138	-2.815559	-1.095209	0.588062	3.105213
103.000000	-1.539505	-0.932763	-0.303301	0.092795	1.389143	0.174505	-0.397658	-0.328790	0.861592	1.361189	0.911588	-0.435741	-0.293143	1.605100	1.269837	0.850288	-1.452637	-0.551907	-0.284874	1.172931	1.163541	0.447397	0.565120	-0.058502	-0.245936	0.083506	0.197329	0.502195	0.599698	-2.884367	-2.727229	-0.811405	0.424718	3.158951
104.000000	-1.819515	-1.107151	-0.524991	-0.039977	1.337580	0.059251	-0.569052	-0.546322	0.822115	1.396139	0.999297	-0.553134	-0.525223	1.875248	1.422656	1.198027	-1.485377	-0.701935	-0.524682	1.376251	1.335223	0.686447	1.001639	-0.034639	-0.497052	0.158546	0.410169	0.659752	0.474562	-2.962212	-2.684739	-0.636900	0.143633	3.206485
105.000000	-1.897972	-1.227170	-0.548887	-0.039812	1.279739	0.093205	-0.552315	-0.562397	0.739552	1.365419	0.934154	-0.419713	-0.566308	1.599884	1.465596	1.161267	-1.182419	-0.551334	-0.611574	1.148748	1.400918	0.861330	1.235029	-0.017758	-0.609183	0.023507	0.536903	0.832432	0.466518	-3.103694	-2.691148	-0.562512	-0.174575	3.253368
106.000000	-1.827286	-1.252091	-0.411398	-0.000585	1.164803	0.174405	-0.418572	-0.409717	0.618882	1.266301	0.781859	-0.148193	-0.445164	0.969819	1.401224	0.833388	-0.755365	-0.235201	-0.535976	0.620302	1.364839	0.938137	1.361365	0.088639	-0.559606	-0.253592	0.579152	0.986352	0.607557	-3.280105	-2.718814	-0.505359	-0.479770	3.294196
107.000000	-1.803069	-1.271392	-0.265474	-0.132072	0.947649	0.147001	-0.297041	-0.248619	0.411336	1.102947	0.671764	0.116771	-0.306350	0.353015	1.281559	0.586873	-0.352740	-0.052210	-0.406676	0.103410	1.300498	1.036246	1.662643	0.341423	-0.431200	-0.506321	0.594615	1.160884	0.848115	-3.458438	-2.738761	-0.396385	-0.785693	3.395829
108.000000	-1.935501	-1.393401	-0.201451	-0.478053	0.647141	-0.039929	-0.250147	-0.178052	0.144419	0.919950	0.696651	0.215869	-0.233598	0.002527	1.185573	0.698917	-0.173994	-0.102426	-0.299804	-0.145582	1.293308	1.280839	2.176862	0.613692	-0.288913	-0.595923	0.639872	1.387564	1.039216	-3.613840	-2.747728	-0.264057	-1.025317	3.589302
109.000000	-2.150672	-1.582915	-0.199757	-0.861729	0.339429	-0.298038	-0.283988	-0.170365	-0.074939	0.776393	0.824055	0.090798	-0.205240	-0.032738	1.153415	1.089041	-0.184801	-0.225596	-0.217816	-0.093386	1.371336	1.658303	2.730326	0.574373	-0.161332	-0.525947	0.719937	1.612020	1.015704	-3.715810	-2.761557	-0.208500	-1.107138	3.803926
110.000000	-2.344391	-1.738455	-0.212662	-1.138365	0.090380	-0.472076	-0.360043	-0.186695	-0.195569	0.664646	0.938386	-0.096290	-0.195461	0.041134	1.147258	1.434745	-0.175581	-0.243014	-0.167795	0.049069	1.478864	2.032035	3.184672	0.197744	-0.083537	-0.427714	0.814624	1.807544	0.836141	-3.718337	-2.749882	-0.211377	-1.063026	3.959067
111.000000	-2.493612	-1.815331	-0.243967	-1.303718	-0.071956	-0.509577	-0.450405	-0.240526	-0.246038	0.552451	1.017218	-0.182435	-0.231454	-0.009622	1.117672	1.590712	-0.021033	-0.130632	-0.186817	0.065474	1.546440	2.267078	3.421632	-0.105643	-0.093898	-0.406859	0.906903	2.001779	0.704686	-3.613134	-2.677733	-0.157657	-0.976017	4.061982
112.000000	-2.544824	-1.829008	-0.295207	-1.372992	-0.128597	-0.454697	-0.514377	-0.309491	-0.267966	0.453390	1.045398	-0.129884	-0.307540	-0.189456	1.073994	1.649073	0.374945	-0.024023	-0.284091	-0.065228	1.570084	2.301495	3.338097	-0.093576	-0.194979	-0.470649	0.982471	2.151587	0.639127	-3.471413	-2.584141	-0.047518	-0.936028	4.170890
113.000000	-2.452108	-1.801923	-0.347685	-1.347870	-0.059105	-0.306781	-0.523322	-0.348921	-0.286039	0.403921	1.032491	-0.019744	-0.381007	-0.368816	1.065159	1.762550	0.854687	-0.027731	-0.405253	-0.244845	1.587020	2.194255	2.900825	0.093474	-0.330835	-0.574010	1.045679	2.212258	0.561788	-3.373412	-2.519368	0.004667	-0.920111	4.289199
114.000000	-2.275563	-1.787253	-0.389718	-1.246295	0.110260	-0.104036	-0.604636	-0.355476	-0.276088	0.429688	1.059447	-0.044541	-0.425917	-0.435011	1.109494	1.979656	1.113987	-0.074653	-0.476951	-0.355966	1.622985	2.100824	2.133572	0.201466	-0.418882	-0.642553	1.124690	2.241370	0.512978	-3.302649	-2.471970	-0.052261	-0.748381	4.298515
115.000000	-2.095641	-1.786568	-0.422471	-1.084526	0.311455	0.056183	-0.776604	-0.371102	-0.191414	0.508321	1.064788	-0.178408	-0.453657	-0.355306	1.162294	2.031809	1.143998	-0.126714	-0.502760	-0.340662	1.666216	2.079173	1.166568	0.055334	-0.453382	-0.609307	1.237643	2.306415	0.593516	-3.178534	-2.364641	-0.092020	-0.511284	4.052928
116.000000	-1.981483	-1.716426	-0.493607	-0.924335	0.482366	0.209752	-0.811157	-0.457475	-0.085443	0.580194	0.965860	-0.164286	-0.522650	-0.195953	1.178448	1.686925	1.100560	-0.202952	-0.555576	-0.237877	1.682501	2.061071	0.183698	-0.276367	-0.515219	-0.500098	1.360379	2.407990	0.783942	-2.970542	-2.133606	0.061367	-0.480324	3.582895
117.000000	-1.949216	-1.604096	-0.612338	-0.834157	0.591551	0.390768	-0.702083	-0.587749	-0.048446	0.610538	0.851124	-0.016640	-0.639003	-0.012413	1.168888	1.176836	0.986577	-0.236079	-0.644861	-0.081309	1.686721	2.054559	-0.762366	-0.578340	-0.621261	-0.368795	1.486456	2.526320	0.916771	-2.727478	-1.819420	0.398943	-0.601604	3.066098
118.000000	-1.962268	-1.571413	-0.719586	-0.824450	0.645586	0.488989	-0.695476	-0.687230	-0.100270	0.622518	0.882670	0.026586	-0.744471	0.188507	1.159651	1.031431	0.846591	-0.228853	-0.721124	0.122228	1.714057	2.181892	-1.681287	-0.769621	-0.711552	-0.227627	1.624976	2.651002	0.889314	-2.561549	-1.577722	0.708501	-0.618902	2.659801
119.000000	-1.981194	-1.636006	-0.766379	-0.869400	0.657464	0.428348	-0.832635	-0.725565	-0.197898	0.627420	1.036502	-0.055616	-0.786277	0.354022	1.148855	1.449657	0.827851	-0.259357	-0.749921	0.317207	1.744181	2.485930	-2.443139	-1.013729	-0.736279	-0.108236	1.740689	2.770926	0.750749	-2.525078	-1.494458	0.841362	-0.403727	2.474107
120.000000	-1.951555	-1.717796	-0.686573	-0.893231	0.622568	0.242199	-0.973507	-0.640456	-0.233542	0.601903	1.063626	-0.193527	-0.691716	0.422897	1.125992	1.981346	0.851857	-0.368469	-0.678384	0.417160	1.743287	2.826029	-2.859293	-1.363799	-0.642612	-0.032313	1.805237	2.872595	0.609336	-2.558723	-1.504918	0.804379	-0.039595	2.528105
121.000000	-1.872550	-1.735426	-0.498360	-0.871890	0.543809	0.069450	-0.982134	-0.454708	-0.192114	0.560250	0.923349	-0.292941	-0.493944	0.354027	1.080586	2.158935	0.758174	-0.560403	-0.512969	0.373616	1.706401	2.983476	-2.827485	-1.490933	-0.454090	-0.001290	1.828350	2.894582	0.559442	-2.620574	-1.562116	0.629484	0.276206	2.751045
122.000000	-1.809485	-1.662840	-0.344409	-0.856868	0.451625	0.023748	-0.824437	-0.320097	-0.171487	0.510420	0.813762	-0.265166	-0.345586	0.109004	0.997291	2.018232	0.545489	-0.697727	-0.382367	0.172202	1.644802	2.886913	-2.304392	-1.180880	-0.325412	-0.056531	1.825391	2.813193	0.657466	-2.698467	-1.633634	0.410246	0.388913	3.012746
123.000000	-1.780540	-1.506409	-0.284090	-0.847054	0.357233	0.063748	-0.561517	-0.269943	-0.178364	0.435692	0.772739	-0.130356	-0.294884	-0.173014	0.886352	1.723255	0.258674	-0.680704	-0.363159	-0.098335	1.577507	2.620936	-1.420226	-0.705037	-0.329010	-0.200301	1.806102	2.680385	0.851203	-2.772217	-1.680477	0.241813	0.285331	3.152261
124.000000	-1.795759	-1.294033	-0.275444	-0.832611	0.232745	0.072631	-0.307103	-0.255975	-0.140537	0.341198	0.685776	0.059529	-0.303887	-0.238107	0.778119	1.303503	-0.009606	-0.622190	-0.408146	-0.232765	1.529259	2.304955	-0.467897	-0.415140	-0.386811	-0.317287	1.795590	2.557905	1.046275	-2.824495	-1.689853	0.110162	0.078383	3.144733
125.000000	-1.882609	-1.135362	-0.276290	-0.807429	0.080609	-0.056270	-0.348803	-0.267178	-0.039144	0.246835	0.560022	0.038677	-0.326195	-0.087538	0.704471	1.007879	-0.147190	-0.671435	-0.449561	-0.176407	1.524126	2.138192	0.356610	-0.372999	-0.433204	-0.321610	1.828099	2.544607	1.270182	-2.853270	-1.653873	0.006063	-0.045050	3.095093
126.000000	-2.023042	-1.135374	-0.249354	-0.767844	-0.073382	-0.334345	-0.756572	-0.256682	0.052584	0.159475	0.505259	-0.341461	-0.306182	0.026421	0.679859	1.170410	-0.133842	-0.851535	-0.443601	-0.090059	1.546894	2.230936	0.991175	-0.430869	-0.428860	-0.263494	1.877816	2.654031	1.518542	-2.866378	-1.600756	-0.059768	0.000672	3.063492
127.000000	-2.165989	-1.277591	-0.211013	-0.759497	-0.213634	-0.613316	-1.119232	-0.216996	0.073551	0.078911	0.507103	-0.670917	-0.254403	-0.007500	0.683417	1.541424	0.052302	-1.036393	-0.387540	-0.072663	1.557112	2.382103	1.382877	-0.382200	-0.370437	-0.197655	1.904930	2.732470	1.616355	-2.847461	-1.569007	-0.139112	-0.036300	3.063630
128.000000	-2.239626	-1.483503	-0.230216	-0.785669	-0.306379	-0.717366	-1.155680	-0.225772	0.042643	0.028485	0.486658	-0.576456	-0.239409	-0.087895	0.702352	1.590123	0.485673	-1.117269	-0.333953	-0.065264	1.555255	2.363487	1.509923	-0.164780	-0.330831	-0.117903	1.934731	2.683289	1.446381	-2.796837	-1.563510	-0.290683	-0.374742	3.087344
129.000000	-2.215645	-1.695716	-0.338408	-0.820443	-0.314149	-0.604736	-0.991962	-0.321867	-0.034245	0.038056	0.510432	-0.184428	-0.306889	-0.178746	0.747897	1.382199	1.100954	-1.168722	-0.370134	-0.046289	1.572368	2.272137	1.453986	0.076232	-0.396668	-0.068587	1.982824	2.618716	1.119010	-2.766815	-1.563508	-0.486852	-0.756638	3.071042
130.000000	-2.123894	-1.856434	-0.518043	-0.873983	-0.228823	-0.363805	-0.816335	-0.489483	-0.174167	0.107452	0.687213	0.226031	-0.461034	-0.320912	0.825537	1.390590	1.647274	-1.316652	-0.531968	-0.065753	1.628026	2.346343	1.254011	0.185720	-0.587223	-0.096388	2.042399	2.725356	0.768782	-2.791641	-1.549962	-0.668236	-0.889100	2.950160
131.000000	-2.027308	-1.892900	-0.751399	-0.950617	-0.083863	-0.144092	-0.705497	-0.715356	-0.330994	0.211847	0.980966	0.467995	-0.695727	-0.467554	0.938257	1.756811	1.903810	-1.511171	-0.768363	-0.080035	1.738103	2.653467	0.808138	0.060274	-0.850591	-0.094134	2.141923	3.120652	0.429147	-2.829014	-1.505650	-0.807128	-0.806948	2.782192
132.000000	-1.966013	-1.787083	-0.991720	-1.003287	0.090712	-0.032066	-0.721770	-0.943243	-0.389602	0.352234	1.297458	0.415939	-0.946753	-0.507437	1.093121	2.225229	1.810772	-1.676606	-0.987387	0.034033	1.915595	3.046947	0.148753	-0.424341	-1.093006	0.098233	2.297248	3.632414	0.166926	-2.798499	-1.418471	-0.938326	-0.633413	2.699545
133.000000	-1.887248	-1.585344	-1.117228	-0.984901	0.284468	0.017107	-0.822409	-1.051970	-0.316161	0.521358	1.547090	0.154926	-1.072133	-0.418846	1.253196	2.502631	1.414140	-1.800623	-1.076223	0.258725	2.099249	3.272364	-0.388053	-1.172419	-1.184873	0.423636	2.445917	3.750120	0.132793	-2.702756	-1.337978	-1.158554	-0.456012	2.768360
134.000000	-1.780718	-1.357430	-1.055505	-0.913074	0.454468	0.075091	-0.787740	-0.985115	-0.190666	0.658377	1.576685	0.014110	-1.009885	-0.289450	1.345242	2.448357	0.905143	-1.799475	-0.987872	0.416517	2.195330	3.229875	-0.644803	-1.784483	-1.068239	0.624317	2.501363	3.349444	0.315657	-2.621208	-1.340351	-1.493961	-0.360009	2.924909
135.000000	-1.725304	-1.230522	-0.888933	-0.804558	0.570888	0.155400	-0.616823	-0.824029	-0.059962	0.739382	1.403417	0.045008	-0.842331	-0.174611	1.380787	2.166065	0.624168	-1.682092	-0.806841	0.465345	2.215792	3.048762	-0.858226	-2.042307	-0.846282	0.621144	2.485326	2.937524	0.389770	-2.561332	-1.408946	-1.875677	-0.334727	3.025363
136.000000	-1.753144	-1.329268	-0.725921	-0.669390	0.650308	0.213959	-0.593734	-0.677024	0.083692	0.825522	1.331120	-0.113406	-0.673231	-0.052044	1.461827	2.001598	0.557479	-1.549087	-0.653449	0.526181	2.247511	2.902421	-1.180849	-2.119359	-0.666123	0.598696	2.503127	2.861916	0.169379	-2.482269	-1.459557	-2.236881	-0.222408	3.053710
137.000000	-1.858278	-1.654046	-0.597464	-0.574002	0.689070	0.217785	-0.815620	-0.575982	0.224976	0.946794	1.487401	-0.476293	-0.547406	0.074605	1.608190	2.136481	0.450556	-1.439101	-0.566768	0.628738	2.318940	2.869486	-1.346105	-2.234254	-0.586617	0.653292	2.568422	2.898252	-0.087159	-2.394661	-1.465501	-2.553734	0.031137	3.072290
138.000000	-2.006513	-2.032868	-0.494978	-0.546310	0.675031	0.202678	-1.026708	-0.500158	0.332916	1.051118	1.625659	-0.595750	-0.460009	0.180852	1.733902	2.340652	0.250608	-1.409254	-0.519787	0.726153	2.393209	2.901491	-1.048009	-2.386789	-0.579805	0.730282	2.619662	2.677201	-0.128609	-2.358724	-1.478807	-2.868330	0.207221	3.082818
139.000000	-2.093174	-2.267964	-0.429516	-0.528517	0.649012	0.170867	-1.084752	-0.450682	0.425888	1.130786	1.623828	-0.454963	-0.418129	0.321085	1.825008	2.483380	-0.184443	-1.516827	-0.510616	0.837724	2.483596	2.961562	-0.497605	-2.470083	-0.611628	0.818246	2.668776	2.296247	-0.032562	-2.417535	-1.531657	-3.195350	0.139263	3.103584
140.000000	-2.085265	-2.350858	-0.462060	-0.486703	0.670620	0.128579	-1.163462	-0.489293	0.558845	1.233037	1.697206	-0.463717	-0.479293	0.597583	1.960420	2.765242	-0.889569	-1.762997	-0.584143	1.045557	2.631820	2.963798	-0.062193	-2.493377	-0.707971	0.945950	2.750226	2.035454	0.043470	-2.528681	-1.578304	-3.439922	-0.105368	3.122315
141.000000	-2.084104	-2.379605	-0.611060	-0.440688	0.738193	0.146966	-1.332161	-0.642163	0.755657	1.366063	1.879905	-0.663853	-0.651497	1.038235	2.149394	3.150617	-1.587975	-2.066511	-0.737534	1.401300	2.812592	2.779933	0.135183	-2.605748	-0.863990	1.132691	2.852062	1.889695	0.067423	-2.586679	-1.531724	-3.510617	-0.405465	3.060498
142.000000	-2.174759	-2.418819	-0.798282	-0.421181	0.794768	0.225337	-1.507721	-0.827699	0.963819	1.495190	1.994813	-0.841911	-0.847967	1.497499	2.322707	3.350276	-1.978512	-2.370824	-0.901328	1.817211	2.977135	2.545132	0.068767	-2.860320	-1.020281	1.350981	2.961616	1.830403	0.063306	-2.517663	-1.354672	-3.417022	-0.577981	2.929350
143.000000	-2.358512	-2.488871	-0.927384	-0.414912	0.807460	0.262586	-1.629592	-0.937728	1.118600	1.591431	2.013930	-0.896743	-0.970170	1.770061	2.451596	3.335432	-1.910784	-2.701257	-1.008207	2.113411	3.118701	2.486946	-0.259095	-3.141859	-1.119947	1.542784	3.073909	1.870861	-0.038096	-2.337802	-1.120211	-3.296538	-0.560361	2.818740
144.000000	-2.583267	-2.571505	-0.953819	-0.382117	0.798349	0.229541	-1.655648	-0.938931	1.220120	1.658443	1.953056	-0.804429	-0.976826	1.858093	2.554977	3.154842	-1.515070	-2.945892	-1.022815	2.239843	3.255667	2.626595	-0.775376	-3.446023	-1.118609	1.705980	3.179223	1.953081	-0.334477	-2.116140	-0.921182	-3.325683	-0.467581	2.783322
145.000000	-2.737457	-2.593793	-0.884709	-0.292786	0.816914	0.220949	-1.574450	-0.862405	1.327257	1.711214	1.804462	-0.636771	-0.893679	1.937649	2.637179	2.677115	-1.038328	-2.969313	-0.961477	2.312309	3.381016	2.811748	-1.332078	-3.869989	-1.039574	1.866897	3.267270	2.003985	-0.767746	-1.937629	-0.817835	-3.565943	-0.278260	2.804534
146.000000	-2.698501	-2.457986	-0.743203	-0.120064	0.911958	0.293739	-1.432830	-0.730682	1.469089	1.771755	1.605159	-0.494277	-0.762158	2.011347	2.689015	1.896172	-0.644775	-2.881287	-0.866363	2.375214	3.466646	2.823457	-1.827032	-4.268676	-0.932272	1.999721	3.341878	1.952796	-1.151114	-1.854581	-0.822631	-3.919517	0.031549	2.810295
147.000000	-2.511184	-2.203171	-0.584521	0.103518	1.068918	0.424584	-1.347800	-0.589931	1.581263	1.854607	1.429640	-0.413041	-0.628779	1.951745	2.717131	1.108570	-0.367696	-2.810294	-0.774763	2.365639	3.496125	2.585957	-2.192696	-4.351553	-0.826630	2.057395	3.391218	1.766360	-1.372373	-1.831513	-0.867358	-4.229366	0.264046	2.780048
148.000000	-2.339246	-2.035025	-0.464317	0.296917	1.216366	0.513772	-1.409916	-0.487757	1.625713	1.943078	1.342144	-0.427549	-0.530031	1.817663	2.757498	0.645459	-0.223943	-2.705975	-0.704269	2.299517	3.498179	2.225848	-2.325075	-4.103375	-0.740614	2.065858	3.411211	1.488667	-1.536137	-1.811570	-0.881018	-4.422073	0.285856	2.686814
149.000000	-2.229735	-2.019798	-0.398778	0.412958	1.327940	0.459284	-1.546181	-0.426947	1.641798	2.023426	1.350702	-0.591007	-0.469373	1.743975	2.844611	0.609355	-0.282323	-2.583063	-0.648439	2.261472	3.530205	1.917058	-2.178065	-3.779084	-0.674184	2.088360	3.433146	1.254217	-1.838569	-1.799077	-0.877470	-4.556415	0.251043	2.451271
150.000000	-2.153893	-2.026740	-0.388048	0.444464	1.416259	0.295649	-1.664630	-0.400188	1.661305	2.115899	1.395279	-0.890109	-0.436245	1.810876	2.963558	0.850890	-0.532570	-2.593237	-0.593831	2.309547	3.601906	1.777501	-1.890311	-3.533809	-0.628005	2.143944	3.471418	1.252761	-2.291456	-1.815221	-0.931850	-4.741116	0.334391	2.112873
151.000000	-2.111822	-2.004250	-0.406098	0.397466	1.499436	0.181428	-1.756234	-0.397991	1.727522	2.237988	1.409550	-1.212263	-0.426242	2.085827	3.092850	1.105808	-0.935392	-2.742302	-0.555555	2.474482	3.686691	1.773864	-1.672331	-3.374251	-0.607025	2.236569	3.512218	1.394666	-2.665512	-1.857731	-1.070688	-5.020677	0.560643	1.875293
152.000000	-2.089974	-1.987197	-0.460555	0.310322	1.613445	0.245774	-1.718238	-0.440789	1.907005	2.379356	1.426965	-1.375614	-0.468591	2.545310	3.218012	1.306877	-1.431234	-2.931726	-0.600232	2.709809	3.762559	1.786311	-1.556028	-3.355084	-0.649282	2.344166	3.522603	1.253759	-2.760181	-1.914532	-1.233370	-5.359644	0.733421	1.863155
153.000000	-2.053286	-1.983407	-0.552149	0.246190	1.731042	0.418838	-1.484331	-0.531629	2.124223	2.506160	1.452076	-1.255463	-0.558969	2.940404	3.296487	1.521319	-1.872400	-3.135954	-0.736480	2.867696	3.798558	1.814018	-1.478908	-3.487534	-0.769286	2.394122	3.473776	0.792960	-2.614488	-1.933910	-1.311184	-5.618487	0.631062	1.986772
154.000000	-1.942012	-1.960758	-0.545568	0.273211	1.776845	0.526851	-1.234499	-0.541765	2.207898	2.567377	1.371333	-1.035354	-0.564432	2.937528	3.277815	1.567894	-2.121345	-3.260834	-0.793326	2.842694	3.762261	1.821432	-1.386989	-3.669983	-0.825310	2.367365	3.370009	0.378007	-2.438556	-1.845610	-1.232598	-5.649577	0.406503	2.160139
155.000000	-1.742611	-1.909131	-0.352888	0.402095	1.740844	0.510187	-1.149684	-0.374492	2.145231	2.529503	1.149146	-1.004521	-0.390105	2.577503	3.158681	1.234275	-2.120799	-3.191069	-0.634094	2.693984	3.654393	1.605368	-1.101963	-3.813433	-0.689750	2.332376	3.244437	0.061464	-2.412019	-1.639981	-1.029528	-5.483418	0.342526	2.391447
156.000000	-1.555509	-1.879575	-0.071556	0.536252	1.644731	0.404767	-1.240962	-0.118193	2.040736	2.414907	0.882648	-1.197619	-0.127764	2.216650	3.011612	0.724198	-2.009688	-2.958485	-0.357332	2.564544	3.519649	1.182528	-0.530313	-3.867590	-0.441964	2.338257	3.129266	-0.237237	-2.576209	-1.390354	-0.790526	-5.259872	0.479816	2.640264
157.000000	-1.451354	-1.894603	0.160722	0.620127	1.540727	0.289022	-1.435037	0.114083	1.970601	2.308617	0.708829	-1.457526	0.090212	2.045463	2.907563	0.411386	-1.872395	-2.739484	-0.115647	2.523892	3.406522	0.779884	0.011638	-3.900572	-0.223630	2.359222	3.044409	-0.457750	-2.866869	-1.179641	-0.605959	-5.092446	0.610978	2.752278
158.000000	-1.409009	-1.899467	0.294258	0.677522	1.470955	0.206971	-1.637501	0.276490	1.953525	2.259050	0.677796	-1.572746	0.218018	2.037898	2.829465	0.358017	-1.549242	-2.635556	0.029912	2.542287	3.323396	0.420042	0.059317	-4.013981	-0.085853	2.363930	2.991201	-0.610927	-3.159294	-0.988020	-0.465114	-4.963343	0.584686	2.617203
