time	FP1	FP2	F7	F3	FZ	F4	F8	FT7	FC3	FCZ	FC4	FT8	T7	C3	CZ	C4	T8	M1	TP7	CP3	CPZ	CP4	TP8	M2	P7	P3	PZ	P4	P8	O1	OZ	O2	HEO	VEO	
-200.000000	0.852772	0.843010	-0.105161	0.215797	0.041515	-0.139665	-0.088123	-0.102943	-0.048403	0.014412	-0.078447	-0.011046	-0.081303	-0.410469	-0.031321	-0.300613	-0.955319	0.345597	-0.068515	-0.197396	-0.066161	0.084951	-1.237607	0.619796	-0.085533	0.011632	0.071220	0.258153	0.261286	0.140638	0.118424	0.128820	0.122977	-2.277565
-199.000000	0.859466	0.839326	-0.012861	0.232004	0.078957	-0.067257	-0.100305	-0.013940	-0.035210	0.023394	-0.081461	0.017942	0.006091	-0.386702	-0.019572	-0.081117	-1.050252	0.439290	-0.019549	-0.221307	-0.065577	0.110741	-1.682487	0.375699	-0.036373	-0.020857	0.066638	0.249886	0.268625	0.088226	0.103727	0.134816	0.188083	-2.097938
-198.000000	0.800471	0.813601	-0.001090	0.184360	0.036566	-0.098582	-0.181528	-0.009087	-0.095415	-0.025374	-0.100512	-0.026802	-0.001541	-0.402719	-0.036955	0.244122	-0.867981	0.449387	0.007302	-0.234897	-0.079084	0.251634	-1.628251	-0.045427	-0.005603	-0.019536	0.086955	0.265899	0.292561	0.113847	0.112627	0.201050	0.201281	-1.899243
-197.000000	0.645392	0.718691	-0.034572	0.097316	-0.090666	-0.267108	-0.355206	-0.061020	-0.188484	-0.120122	-0.128859	-0.226544	-0.055622	-0.410918	-0.073928	0.556049	-0.633510	0.412701	0.020255	-0.224818	-0.081878	0.474394	-1.078241	-0.402256	0.007343	0.028051	0.129359	0.332866	0.360725	0.194043	0.169566	0.287000	0.243035	-1.715141
-196.000000	0.452374	0.477079	-0.088308	0.027907	-0.261195	-0.474460	-0.582067	-0.123052	-0.255355	-0.231762	-0.166704	-0.538508	-0.121863	-0.359779	-0.129068	0.720715	-0.417882	0.373170	0.002821	-0.184463	-0.076271	0.620428	-0.244534	-0.421050	-0.012330	0.111476	0.165462	0.413868	0.501480	0.256640	0.238476	0.326753	0.297029	-1.547792
-195.000000	0.307631	0.092799	-0.151376	0.006250	-0.431170	-0.600488	-0.726995	-0.166692	-0.283597	-0.336625	-0.310952	-0.758930	-0.180033	-0.214712	-0.203404	0.522967	-0.196836	0.369328	-0.062589	-0.083404	-0.104124	0.547127	0.685368	-0.056380	-0.072674	0.190691	0.158773	0.448938	0.764867	0.253031	0.267477	0.325736	0.278517	-1.409345
-194.000000	0.237475	-0.305182	-0.188352	0.025041	-0.558894	-0.627537	-0.714887	-0.173914	-0.245413	-0.420435	-0.589258	-0.713741	-0.194501	0.059459	-0.293108	-0.124584	0.037324	0.388604	-0.143895	0.123308	-0.161961	0.215058	1.467579	0.475816	-0.142329	0.262974	0.120537	0.363697	1.062855	0.196609	0.246542	0.315115	0.163060	-1.302473
-193.000000	0.211096	-0.554218	-0.213176	0.067136	-0.629661	-0.613539	-0.594442	-0.172046	-0.132331	-0.474013	-0.839480	-0.440904	-0.194845	0.404453	-0.362036	-0.886743	0.295244	0.361852	-0.229373	0.383324	-0.203614	-0.270069	1.853992	0.946001	-0.209559	0.341884	0.091914	0.156213	1.225051	0.131506	0.213098	0.337286	-0.046620	-1.227005
-192.000000	0.220447	-0.641409	-0.239907	0.145660	-0.655114	-0.573500	-0.468794	-0.176937	-0.000750	-0.494906	-0.916901	-0.142382	-0.207723	0.674292	-0.383268	-1.332365	0.472069	0.318865	-0.298679	0.578938	-0.202123	-0.680154	1.828985	1.148324	-0.258096	0.396417	0.070674	-0.075689	1.212527	0.092198	0.195681	0.393617	-0.308406	-1.199314
-191.000000	0.252695	-0.652010	-0.240324	0.238420	-0.627641	-0.508146	-0.430123	-0.179349	0.128200	-0.455860	-0.822543	-0.049899	-0.207258	0.837196	-0.348002	-1.310956	0.291992	0.289556	-0.297147	0.681073	-0.145845	-0.845976	1.614938	0.980198	-0.253871	0.448873	0.056092	-0.234439	1.087508	0.115842	0.195595	0.391213	-0.533723	-1.229437
-190.000000	0.283940	-0.578145	-0.219761	0.276239	-0.556489	-0.446008	-0.482031	-0.166860	0.230249	-0.364990	-0.666541	-0.251872	-0.183413	0.909719	-0.265135	-0.939861	-0.326592	0.182516	-0.233302	0.706458	-0.042760	-0.734773	1.498620	0.681496	-0.203839	0.523643	0.069345	-0.247067	0.941230	0.184445	0.182507	0.239029	-0.701898	-1.265407
-189.000000	0.338412	-0.363164	-0.140641	0.274501	-0.498579	-0.418005	-0.553464	-0.080661	0.245494	-0.309434	-0.623853	-0.552737	-0.093952	0.775643	-0.215802	-0.650093	-1.017484	0.018265	-0.111616	0.626492	0.050898	-0.496896	1.568170	0.547516	-0.094019	0.555773	0.093029	-0.139802	0.860570	0.267653	0.144038	-0.006254	-0.822695	-1.221247
-188.000000	0.437445	-0.059758	0.017432	0.279780	-0.475251	-0.400908	-0.568830	0.066905	0.178777	-0.318427	-0.731576	-0.681344	0.059981	0.411814	-0.247177	-0.764095	-1.361351	-0.059811	0.065774	0.446640	0.075644	-0.390578	1.665611	0.566318	0.074508	0.510062	0.102234	-0.056734	0.829861	0.360535	0.131266	-0.164748	-0.832086	-1.089598
-187.000000	0.496126	0.190915	0.125960	0.278863	-0.457580	-0.398163	-0.544823	0.154634	0.089582	-0.335661	-0.831398	-0.658002	0.154517	0.026247	-0.302826	-0.980471	-1.334302	-0.004730	0.197757	0.261043	0.036482	-0.422416	1.647584	0.669868	0.200800	0.436896	0.107549	-0.044521	0.761899	0.436206	0.179645	-0.137680	-0.731646	-0.909938
-186.000000	0.421625	0.326759	0.103752	0.263683	-0.425863	-0.488720	-0.569486	0.134491	0.011592	-0.336266	-0.793347	-0.666629	0.125921	-0.214860	-0.312718	-0.878461	-1.173525	0.112334	0.206481	0.159302	-0.009626	-0.421781	1.488397	0.826370	0.217818	0.399039	0.128359	-0.033472	0.632276	0.471117	0.267613	0.027825	-0.607152	-0.675202
-185.000000	0.260490	0.411337	-0.002713	0.228507	-0.385355	-0.617797	-0.634210	0.033859	-0.050638	-0.319767	-0.643112	-0.690024	0.013063	-0.303404	-0.260582	-0.527333	-1.012348	0.158841	0.105576	0.143890	-0.016329	-0.375434	1.245850	0.887446	0.141158	0.399833	0.171793	0.008229	0.534060	0.479008	0.379827	0.236280	-0.501888	-0.411196
-184.000000	0.106080	0.479347	-0.123321	0.181164	-0.349200	-0.654249	-0.633575	-0.090443	-0.061031	-0.293089	-0.542161	-0.605543	-0.124780	-0.250909	-0.185046	-0.361041	-0.918237	0.126394	-0.033919	0.185254	0.015999	-0.388885	0.916074	0.823069	0.018317	0.433445	0.243770	0.051760	0.564404	0.514914	0.516483	0.438953	-0.465292	-0.214391
-183.000000	0.013502	0.463023	-0.193088	0.142685	-0.322763	-0.612841	-0.569207	-0.156276	0.010855	-0.278239	-0.565759	-0.479740	-0.216837	-0.077406	-0.120818	-0.494518	-0.935811	0.181717	-0.117580	0.275826	0.065108	-0.474213	0.433655	0.753463	-0.076405	0.521224	0.341165	0.053677	0.661404	0.572673	0.620092	0.581430	-0.462289	-0.136597
-182.000000	-0.003667	0.310426	-0.208884	0.089772	-0.288388	-0.565036	-0.532087	-0.167695	0.110183	-0.264853	-0.582178	-0.457582	-0.244705	0.128832	-0.042526	-0.528268	-1.057662	0.301139	-0.131769	0.393865	0.146219	-0.489329	-0.100741	0.720343	-0.116712	0.635205	0.440370	0.035975	0.693564	0.571627	0.623202	0.581361	-0.382184	-0.169734
-181.000000	0.035139	0.015211	-0.187446	0.047419	-0.236759	-0.506965	-0.557384	-0.166446	0.176466	-0.222491	-0.495629	-0.552474	-0.221309	0.299070	0.078382	-0.257704	-1.355339	0.335502	-0.104605	0.504370	0.275897	-0.372737	-0.471778	0.630045	-0.105880	0.735516	0.526931	0.025419	0.605869	0.510773	0.545933	0.467003	-0.210962	-0.283690
-180.000000	0.107810	-0.371394	-0.133747	0.072411	-0.216203	-0.478759	-0.650204	-0.142402	0.222864	-0.157028	-0.412973	-0.699363	-0.153521	0.426231	0.203990	0.077755	-1.766852	0.303000	-0.039149	0.588059	0.403627	-0.206574	-0.488664	0.439083	-0.044006	0.813748	0.603863	0.014046	0.419187	0.472022	0.461338	0.331807	0.041764	-0.449943
-179.000000	0.170034	-0.727728	-0.085770	0.119178	-0.268762	-0.536882	-0.766247	-0.109093	0.242159	-0.121257	-0.462944	-0.801089	-0.091140	0.503293	0.280616	0.184292	-2.002384	0.221358	0.028262	0.630386	0.483471	-0.010909	-0.112064	0.358326	0.016679	0.839585	0.662967	0.049814	0.222455	0.461587	0.403609	0.218197	0.326674	-0.676244
-178.000000	0.202271	-0.955173	-0.057495	0.132205	-0.371385	-0.623981	-0.810125	-0.085993	0.195025	-0.132222	-0.602350	-0.763063	-0.069330	0.542629	0.276753	0.048953	-1.781272	0.062534	0.058816	0.624518	0.513488	0.175958	0.432663	0.472412	0.035026	0.792889	0.669948	0.129291	0.071971	0.386936	0.320064	0.108040	0.493775	-0.948829
-177.000000	0.205260	-1.028707	-0.051052	0.091027	-0.471507	-0.703005	-0.783648	-0.080452	0.110611	-0.162345	-0.679747	-0.623486	-0.082690	0.599556	0.222022	-0.021986	-1.055548	-0.085929	0.045755	0.600651	0.504640	0.265559	0.862518	0.537198	0.004571	0.707036	0.618617	0.154878	-0.059818	0.221143	0.184371	-0.045490	0.549184	-1.158962
-176.000000	0.150532	-0.970403	-0.083770	-0.012270	-0.532811	-0.766516	-0.778252	-0.109715	0.029529	-0.199987	-0.598633	-0.513255	-0.129651	0.648860	0.193446	0.207307	-0.114661	-0.170830	-0.019487	0.571920	0.498095	0.353214	1.072077	0.381003	-0.083081	0.616083	0.553548	0.160991	-0.202588	0.031941	0.048024	-0.230660	0.631512	-1.205476
-175.000000	0.064918	-0.771814	-0.099716	-0.106692	-0.559133	-0.789918	-0.790881	-0.122117	-0.055622	-0.238493	-0.407538	-0.447067	-0.144024	0.555254	0.195265	0.566193	0.767098	-0.280211	-0.078668	0.482921	0.508211	0.488522	1.129840	0.086512	-0.155151	0.512174	0.499284	0.208024	-0.419945	-0.120456	-0.061730	-0.415043	0.780676	-1.115944
-174.000000	0.005852	-0.453985	-0.049292	-0.122595	-0.585202	-0.790474	-0.731516	-0.069583	-0.123760	-0.270355	-0.248230	-0.317164	-0.071308	0.352170	0.182196	0.734954	1.498130	-0.424314	-0.058436	0.356890	0.496385	0.518044	1.079472	-0.203447	-0.125983	0.413845	0.466992	0.220459	-0.791996	-0.197243	-0.118704	-0.571801	0.959549	-0.973341
-173.000000	-0.047173	-0.148634	-0.003864	-0.089600	-0.609840	-0.758136	-0.585737	-0.011128	-0.136368	-0.272726	-0.225439	-0.087793	0.005700	0.260586	0.177067	0.595827	1.918687	-0.555528	-0.011206	0.336805	0.474826	0.454518	0.786880	-0.444972	-0.049160	0.402787	0.478144	0.216640	-1.201011	-0.176102	-0.080716	-0.613333	0.998868	-0.836536
-172.000000	-0.120056	0.032533	-0.017432	-0.057922	-0.594594	-0.651338	-0.413581	-0.002910	-0.113857	-0.235200	-0.319318	0.137674	0.011319	0.332972	0.214821	0.251324	1.908683	-0.652572	0.010924	0.460646	0.487453	0.442401	0.000160	-0.571051	0.004373	0.498247	0.530920	0.290252	-1.359606	-0.070649	0.045018	-0.479634	0.779021	-0.754727
-171.000000	-0.171071	0.107100	-0.032125	-0.029268	-0.523397	-0.494779	-0.233801	-0.014171	-0.090506	-0.180638	-0.426353	0.290049	-0.013550	0.399392	0.266006	-0.096744	1.545684	-0.667357	0.038248	0.590948	0.525361	0.485396	-1.375632	-0.506108	0.052710	0.613247	0.608036	0.412528	-1.171018	0.088457	0.212955	-0.209600	0.436815	-0.758855
-170.000000	-0.173154	0.120941	-0.018673	0.008900	-0.415121	-0.350833	-0.061274	-0.018500	-0.068037	-0.110553	-0.455321	0.381555	-0.029619	0.338633	0.299601	-0.282669	0.967159	-0.613606	0.065862	0.608281	0.565949	0.519214	-2.938561	-0.268660	0.089137	0.678551	0.701864	0.499412	-0.811998	0.274780	0.388436	0.108305	0.100870	-0.855054
-169.000000	-0.141065	0.039246	-0.043848	0.051103	-0.310449	-0.264993	0.003806	-0.061016	-0.043684	-0.033387	-0.369893	0.343199	-0.083081	0.222958	0.315595	-0.185864	0.366188	-0.508203	0.034333	0.541929	0.602690	0.558192	-4.021439	0.007164	0.054501	0.685031	0.799762	0.537515	-0.479061	0.462278	0.551745	0.368747	-0.205821	-0.989611
-168.000000	-0.087723	-0.140587	-0.134979	0.096488	-0.232484	-0.245386	-0.103124	-0.156615	0.010628	0.018321	-0.215054	0.104663	-0.189357	0.219939	0.342254	0.163294	-0.036506	-0.364881	-0.062321	0.512688	0.646749	0.596313	-4.362036	0.088151	-0.050024	0.672915	0.874223	0.511691	-0.279972	0.643810	0.673020	0.485901	-0.464419	-1.063644
-167.000000	-0.039080	-0.297891	-0.236960	0.129687	-0.187349	-0.247254	-0.249650	-0.251146	0.089968	0.033695	-0.097166	-0.159955	-0.282804	0.337888	0.372266	0.506167	-0.093252	-0.262941	-0.164963	0.553774	0.683975	0.531467	-4.125193	-0.084610	-0.161401	0.663797	0.891564	0.381337	-0.210067	0.809655	0.721563	0.444878	-0.679876	-1.032523
-166.000000	-0.007894	-0.321277	-0.260646	0.112604	-0.190843	-0.254196	-0.248491	-0.265849	0.108171	0.000033	-0.135367	-0.199839	-0.280653	0.347597	0.338579	0.522131	0.191914	-0.213032	-0.195218	0.552098	0.659054	0.334489	-3.523165	-0.336987	-0.193697	0.618983	0.835903	0.216529	-0.164006	0.918844	0.712821	0.321411	-0.841772	-0.887955
-165.000000	-0.009287	-0.238490	-0.170194	0.044585	-0.251067	-0.276624	-0.109834	-0.174135	0.054386	-0.086902	-0.323953	-0.043610	-0.162706	0.164400	0.234594	0.146918	0.539486	-0.182523	-0.112297	0.459032	0.570855	0.116292	-2.730767	-0.531341	-0.100884	0.544501	0.753992	0.130350	-0.094446	0.930390	0.688790	0.220489	-0.922428	-0.651178
-164.000000	-0.094948	-0.159135	-0.060169	-0.045990	-0.340626	-0.306511	0.007849	-0.064296	0.004768	-0.182798	-0.504909	0.091534	-0.025434	-0.001305	0.134184	-0.316420	0.635940	-0.185887	0.014897	0.363969	0.476673	-0.014249	-1.809594	-0.672773	0.045821	0.485117	0.704466	0.127197	-0.049428	0.858890	0.680786	0.202387	-0.941296	-0.417024
-163.000000	-0.241531	-0.154314	-0.004253	-0.145804	-0.426501	-0.346799	0.019545	-0.003476	-0.026135	-0.256595	-0.604513	0.102645	0.042814	-0.029057	0.091888	-0.640798	0.444205	-0.238719	0.104023	0.320243	0.416696	-0.057736	-0.770424	-0.792584	0.162880	0.457240	0.688647	0.155615	-0.016879	0.783711	0.702917	0.263050	-0.973595	-0.271992
-162.000000	-0.368742	-0.198705	0.004691	-0.276406	-0.521788	-0.399583	-0.027186	0.004535	-0.088119	-0.321581	-0.644241	0.050714	0.037856	-0.014540	0.077587	-0.800849	0.131765	-0.296089	0.117092	0.287778	0.382945	-0.060612	0.311620	-0.853628	0.192742	0.439029	0.690221	0.201829	0.102689	0.744701	0.734338	0.359938	-1.018255	-0.205877
-161.000000	-0.431359	-0.194108	-0.028082	-0.436114	-0.624502	-0.432372	-0.066231	-0.042333	-0.200627	-0.377065	-0.601843	0.010165	-0.013569	-0.070692	0.045119	-0.749464	-0.161181	-0.240683	0.045136	0.210014	0.351493	-0.039641	1.237143	-0.810437	0.109628	0.368515	0.685303	0.255186	0.325328	0.693553	0.737827	0.445894	-0.928250	-0.121659
-160.000000	-0.407867	-0.100960	-0.068486	-0.552407	-0.689257	-0.406013	-0.084316	-0.097978	-0.309470	-0.407596	-0.464011	-0.021938	-0.072278	-0.191955	0.009884	-0.517068	-0.437568	-0.045448	-0.058319	0.087686	0.328752	-0.015993	1.715312	-0.623206	-0.006359	0.223037	0.652683	0.285509	0.545666	0.578089	0.693627	0.458246	-0.694886	0.039107
-159.000000	-0.330441	-0.019888	-0.081876	-0.572706	-0.699921	-0.358951	-0.131757	-0.112109	-0.354016	-0.412689	-0.307444	-0.113782	-0.097941	-0.285332	-0.004000	-0.243507	-0.697112	0.203357	-0.115723	-0.007969	0.325919	-0.018990	1.680568	-0.239921	-0.068003	0.083095	0.604603	0.278641	0.668707	0.419061	0.628191	0.381938	-0.477707	0.234564
-158.000000	-0.272315	-0.034262	-0.066114	-0.517231	-0.661122	-0.353651	-0.258627	-0.083214	-0.319092	-0.392858	-0.222186	-0.281524	-0.072334	-0.301344	-0.004449	-0.027227	-0.750867	0.421924	-0.100511	-0.035413	0.330685	-0.040501	1.343265	0.241951	-0.070239	0.018998	0.547917	0.230734	0.626221	0.274739	0.569595	0.259052	-0.298435	0.406972
-157.000000	-0.280859	-0.128562	-0.023074	-0.440207	-0.588215	-0.375225	-0.421345	-0.029196	-0.224058	-0.341293	-0.177056	-0.439107	-0.013663	-0.248383	0.019003	0.163826	-0.508143	0.544323	-0.043767	-0.015824	0.335058	-0.029531	0.956003	0.520012	-0.036294	0.010910	0.483727	0.169001	0.394145	0.165488	0.503595	0.098710	-0.075696	0.525152
-156.000000	-0.317308	-0.244382	0.038738	-0.368014	-0.507267	-0.386747	-0.522457	0.037601	-0.106400	-0.269065	-0.137220	-0.474226	0.051747	-0.153751	0.077039	0.325699	-0.172214	0.572256	0.028054	0.036048	0.344621	0.033627	0.615323	0.390695	0.018408	0.034347	0.428144	0.129726	0.068793	0.093168	0.424795	-0.089779	0.139651	0.593008
-155.000000	-0.295819	-0.293179	0.102138	-0.286831	-0.418335	-0.376028	-0.526669	0.118740	0.007535	-0.186713	-0.120404	-0.365108	0.117056	-0.051625	0.137506	0.400090	0.124110	0.532528	0.108338	0.106121	0.357547	0.117193	0.197321	-0.038049	0.080767	0.080987	0.386655	0.102102	-0.239353	0.054686	0.343635	-0.276942	0.264331	0.622969
-154.000000	-0.224382	-0.257611	0.179095	-0.178006	-0.320648	-0.342162	-0.505266	0.222410	0.114716	-0.086983	-0.094964	-0.272521	0.203119	0.056315	0.188210	0.457253	0.279858	0.428313	0.212706	0.175966	0.370181	0.240005	-0.422662	-0.526911	0.162899	0.140750	0.351765	0.078596	-0.509841	0.043211	0.274659	-0.438069	0.400969	0.618384
-153.000000	-0.141311	-0.172801	0.292708	-0.036542	-0.240624	-0.307754	-0.490984	0.345182	0.218620	0.000748	-0.108178	-0.275664	0.328614	0.185115	0.217713	0.387426	0.172038	0.255719	0.350400	0.237046	0.359701	0.390034	-1.109987	-0.878727	0.284490	0.214127	0.319280	0.074642	-0.726031	0.081708	0.269083	-0.495791	0.609711	0.548152
-152.000000	-0.044324	-0.053790	0.418603	0.111303	-0.182774	-0.291694	-0.454115	0.460161	0.310801	0.027313	-0.246680	-0.267940	0.462419	0.300884	0.191502	-0.020938	-0.058653	0.040559	0.481452	0.269603	0.301473	0.440156	-1.530167	-1.090890	0.417738	0.271896	0.281676	0.079088	-0.817420	0.191682	0.360440	-0.359364	0.761802	0.344967
-151.000000	0.036358	0.038324	0.504885	0.218875	-0.129126	-0.327389	-0.410097	0.528343	0.357527	-0.008702	-0.444042	-0.203622	0.545007	0.346247	0.110312	-0.580200	-0.165999	-0.134974	0.543386	0.246875	0.200711	0.305785	-1.457099	-1.229626	0.494986	0.261643	0.230230	0.056786	-0.707156	0.333420	0.495901	-0.057568	0.781273	0.064291
-150.000000	0.077285	0.033438	0.535523	0.260559	-0.076866	-0.412365	-0.380464	0.545765	0.331761	-0.069297	-0.571682	-0.123079	0.558539	0.309729	0.012380	-0.978628	-0.135128	-0.199731	0.531638	0.162008	0.068585	0.024482	-0.987422	-1.191664	0.496824	0.172529	0.169775	-0.023289	-0.443382	0.433769	0.592578	0.275829	0.682118	-0.159165
-149.000000	0.130188	0.005470	0.554162	0.262622	-0.035557	-0.477579	-0.360434	0.565808	0.261473	-0.120161	-0.598317	-0.080960	0.560067	0.225990	-0.067597	-1.155814	-0.098694	-0.111347	0.520432	0.049963	-0.058422	-0.279876	-0.491667	-1.022197	0.498583	0.057380	0.114801	-0.175136	-0.259626	0.477719	0.616017	0.492711	0.557226	-0.288287
-148.000000	0.246034	0.039283	0.578594	0.261775	-0.025348	-0.523507	-0.334392	0.605628	0.194765	-0.147726	-0.579567	-0.153359	0.593005	0.132683	-0.111585	-1.174631	-0.129198	0.109212	0.529815	-0.030347	-0.142731	-0.462785	-0.226818	-0.877371	0.544667	-0.025502	0.079432	-0.325205	-0.276293	0.503554	0.592913	0.535009	0.553582	-0.341631
-147.000000	0.391476	0.055305	0.591154	0.263692	-0.051707	-0.566839	-0.299097	0.630268	0.133495	-0.149873	-0.569245	-0.328357	0.636248	0.033770	-0.116676	-1.090546	-0.253995	0.342284	0.534529	-0.066248	-0.183956	-0.503218	-0.087938	-0.748712	0.595173	-0.064560	0.070634	-0.390775	-0.351658	0.526407	0.554329	0.464634	0.658178	-0.391060
-146.000000	0.533025	0.009925	0.622440	0.290972	-0.101045	-0.596112	-0.290487	0.657095	0.083496	-0.131432	-0.589349	-0.480488	0.688372	-0.041228	-0.104591	-0.970901	-0.469187	0.497239	0.568251	-0.071946	-0.192114	-0.549510	0.070239	-0.647630	0.637499	-0.063785	0.082700	-0.432065	-0.387560	0.532171	0.500464	0.345541	0.733999	-0.518559
-145.000000	0.620258	-0.033968	0.679136	0.342186	-0.173314	-0.648141	-0.339908	0.709177	0.083406	-0.121729	-0.617922	-0.543331	0.746337	-0.034181	-0.095643	-0.843571	-0.719352	0.541769	0.631327	-0.049617	-0.173372	-0.666293	0.217800	-0.560390	0.670011	-0.044223	0.096294	-0.495776	-0.392584	0.513467	0.452245	0.249900	0.717846	-0.696863
-144.000000	0.553937	-0.059307	0.687260	0.356515	-0.266916	-0.741839	-0.418675	0.723554	0.117905	-0.141991	-0.605880	-0.518596	0.736692	0.053904	-0.069768	-0.663850	-0.898572	0.458709	0.646184	-0.015537	-0.127328	-0.711239	0.273939	-0.441781	0.640707	-0.035674	0.103158	-0.501576	-0.329925	0.482940	0.448566	0.264486	0.636917	-0.814668
-143.000000	0.340141	-0.104621	0.588610	0.316906	-0.360444	-0.832445	-0.511219	0.633964	0.164750	-0.160118	-0.522306	-0.486495	0.605245	0.232937	0.002717	-0.375143	-0.934850	0.294830	0.554669	0.050985	-0.059899	-0.582242	0.188170	-0.347127	0.526128	-0.031149	0.120543	-0.398735	-0.192266	0.442572	0.472959	0.362932	0.547087	-0.758556
-142.000000	0.090713	-0.215935	0.410273	0.248276	-0.432789	-0.885060	-0.643330	0.465182	0.258810	-0.139616	-0.362796	-0.565273	0.403531	0.530606	0.102470	0.077789	-0.820209	0.131856	0.380180	0.191769	0.013108	-0.308023	0.001573	-0.264208	0.364434	-0.023489	0.144528	-0.237635	-0.080938	0.333979	0.439317	0.390904	0.494189	-0.519414
-141.000000	-0.086695	-0.362278	0.262668	0.196953	-0.453085	-0.879279	-0.732473	0.318135	0.413916	-0.087237	-0.182462	-0.660244	0.249111	0.849590	0.201151	0.549204	-0.625126	0.040753	0.229606	0.365492	0.067083	0.013988	-0.202139	-0.133993	0.231153	-0.020085	0.140684	-0.115111	-0.129880	0.105338	0.252898	0.182365	0.432186	-0.210017
-140.000000	-0.165493	-0.474459	0.223037	0.199095	-0.388552	-0.772944	-0.662356	0.263352	0.569875	-0.035835	-0.079092	-0.547039	0.202812	0.981852	0.278201	0.704228	-0.457231	0.046416	0.173645	0.450591	0.075601	0.262538	-0.311740	0.051934	0.181066	-0.037399	0.089379	-0.072618	-0.337006	-0.157787	-0.033080	-0.220991	0.284731	0.088324
-139.000000	-0.213917	-0.549218	0.252475	0.242780	-0.240305	-0.587012	-0.501247	0.274446	0.675369	0.012362	-0.083547	-0.263283	0.213744	0.892221	0.320698	0.461867	-0.430070	0.164236	0.183488	0.423390	0.047166	0.377992	-0.234143	0.227693	0.189897	-0.064060	0.017426	-0.084327	-0.580281	-0.313416	-0.247571	-0.584855	0.075566	0.350954
-138.000000	-0.266349	-0.558377	0.280887	0.317817	-0.065110	-0.435540	-0.381126	0.298561	0.745057	0.072685	-0.148406	-0.047289	0.231182	0.768804	0.348317	0.048575	-0.580341	0.362292	0.205731	0.376692	0.012602	0.408050	-0.010919	0.210780	0.199197	-0.069222	-0.031683	-0.108556	-0.789079	-0.321261	-0.313836	-0.760136	-0.149454	0.482525
-137.000000	-0.291483	-0.497977	0.301049	0.395416	0.078598	-0.349096	-0.316186	0.323178	0.778546	0.142458	-0.199680	0.005737	0.262109	0.723668	0.367936	-0.279816	-0.726346	0.477617	0.223560	0.354074	-0.011172	0.394716	0.212822	-0.047503	0.197097	-0.058931	-0.069323	-0.127419	-0.946137	-0.249258	-0.298355	-0.769898	-0.381305	0.410254
-136.000000	-0.257417	-0.423965	0.350440	0.438714	0.195707	-0.251149	-0.277272	0.365429	0.761887	0.222260	-0.187815	-0.056230	0.317513	0.725266	0.365249	-0.406784	-0.792805	0.461304	0.266340	0.354627	-0.026434	0.298996	0.282877	-0.337955	0.227007	-0.038495	-0.128416	-0.169054	-1.024346	-0.213568	-0.313996	-0.727912	-0.563368	0.203262
-135.000000	-0.173967	-0.332083	0.427394	0.438524	0.291454	-0.137878	-0.283400	0.433439	0.729768	0.296192	-0.132495	-0.178865	0.399975	0.714032	0.326764	-0.345912	-0.837419	0.380198	0.341846	0.360036	-0.050083	0.093443	0.176537	-0.472333	0.305176	-0.022689	-0.206803	-0.266029	-0.989882	-0.242666	-0.363362	-0.678915	-0.594649	-0.048588
-134.000000	-0.081829	-0.197618	0.491215	0.399361	0.354080	-0.049697	-0.320208	0.494923	0.705881	0.343193	-0.086211	-0.277760	0.483309	0.670954	0.252076	-0.186756	-0.788499	0.198464	0.427786	0.353767	-0.078048	-0.216340	-0.052236	-0.437844	0.407290	-0.006111	-0.286883	-0.437589	-0.854194	-0.268542	-0.375413	-0.580523	-0.475917	-0.259871
-133.000000	0.028662	-0.022946	0.487777	0.343828	0.391764	0.014889	-0.322320	0.491915	0.666974	0.362606	-0.089734	-0.260050	0.502604	0.601704	0.166810	-0.110222	-0.624315	-0.073073	0.469435	0.340009	-0.092608	-0.524698	-0.301689	-0.301622	0.471762	0.038080	-0.325960	-0.600271	-0.680514	-0.271587	-0.341064	-0.436145	-0.281471	-0.354683
-132.000000	0.135366	0.111278	0.377707	0.280506	0.401168	0.041765	-0.300490	0.382389	0.601319	0.345562	-0.132976	-0.170080	0.398844	0.546766	0.109742	-0.178618	-0.452644	-0.273992	0.394873	0.335663	-0.095866	-0.666276	-0.436515	-0.111849	0.422877	0.099273	-0.293460	-0.628861	-0.522166	-0.244288	-0.243938	-0.233078	-0.069504	-0.359587
-131.000000	0.133063	0.063394	0.167419	0.180893	0.361695	0.019107	-0.320531	0.161570	0.523591	0.293522	-0.161308	-0.121455	0.161874	0.619590	0.110731	-0.210987	-0.347910	-0.312785	0.212349	0.419501	-0.078172	-0.584477	-0.496149	0.055434	0.257620	0.183203	-0.216184	-0.520516	-0.384308	-0.159960	-0.070842	0.061029	0.047283	-0.317256
-130.000000	-0.029360	-0.173971	-0.080691	0.023147	0.256192	-0.057818	-0.422754	-0.091377	0.447084	0.234282	-0.126514	-0.194198	-0.117381	0.866059	0.180663	-0.023554	-0.395476	-0.248885	0.005553	0.655482	-0.008757	-0.317100	-0.605347	0.106477	0.054222	0.318902	-0.108293	-0.343967	-0.257983	-0.037966	0.118414	0.374917	0.003997	-0.217525
-129.000000	-0.299004	-0.454499	-0.248573	-0.162416	0.095508	-0.233576	-0.610420	-0.246106	0.352480	0.186002	0.001501	-0.454688	-0.293802	1.100139	0.266833	0.462907	-0.615104	-0.097683	-0.131216	0.925019	0.102604	0.018718	-0.721365	0.075391	-0.082225	0.467350	0.018266	-0.170208	-0.149385	0.066548	0.257914	0.573090	-0.129930	-0.072466
-128.000000	-0.553144	-0.610351	-0.279416	-0.300770	-0.059810	-0.476340	-0.784275	-0.265303	0.228816	0.143710	0.190293	-0.764408	-0.316631	1.061777	0.298421	1.117320	-0.735831	0.120009	-0.165824	1.019929	0.191369	0.196217	-0.651726	0.013034	-0.117786	0.540571	0.114654	-0.093328	-0.056738	0.117793	0.302990	0.574776	-0.297871	0.083883
-127.000000	-0.673375	-0.590985	-0.192869	-0.335846	-0.170000	-0.647149	-0.818313	-0.170943	0.121094	0.087503	0.321458	-0.863362	-0.213306	0.741211	0.267540	1.525439	-0.602686	0.310698	-0.116353	0.882791	0.217688	0.105983	-0.368691	-0.096619	-0.065171	0.519051	0.147931	-0.148935	0.008327	0.125103	0.268152	0.424633	-0.390278	0.239466
-126.000000	-0.657227	-0.499059	-0.000391	-0.283667	-0.255865	-0.682689	-0.728997	0.033378	0.073843	0.005997	0.291675	-0.752581	0.002563	0.340452	0.189248	1.392507	-0.451519	0.484984	0.024928	0.622455	0.183663	-0.157249	-0.082231	-0.198914	0.095104	0.463076	0.118738	-0.267696	0.034533	0.142840	0.240637	0.277465	-0.236083	0.356702
-125.000000	-0.567618	-0.437259	0.236723	-0.214161	-0.326172	-0.654576	-0.648262	0.277197	0.086485	-0.097154	0.128552	-0.638076	0.274931	0.040194	0.104070	0.884796	-0.500865	0.707243	0.229498	0.382961	0.116788	-0.495894	0.073840	-0.189835	0.326782	0.447775	0.060674	-0.407911	0.056293	0.217842	0.271584	0.253556	0.178241	0.421206
-124.000000	-0.433140	-0.408199	0.414446	-0.176549	-0.366598	-0.612057	-0.608612	0.456381	0.112056	-0.196528	-0.100360	-0.563926	0.488370	-0.098697	0.046438	0.256699	-0.726163	0.927363	0.412180	0.244923	0.059885	-0.817406	0.130943	-0.038342	0.519973	0.486573	0.016319	-0.538768	0.133816	0.319363	0.335787	0.323829	0.690237	0.526581
-123.000000	-0.264668	-0.360798	0.533911	-0.155464	-0.370606	-0.532249	-0.522927	0.574426	0.096948	-0.266948	-0.417791	-0.427633	0.620182	-0.140483	-0.005971	-0.571600	-1.017206	1.052392	0.553065	0.202500	0.018456	-1.062488	0.133799	0.162969	0.640663	0.546518	0.007656	-0.604978	0.287197	0.425795	0.421214	0.444118	1.143190	0.701825
-122.000000	-0.104709	-0.321884	0.653536	-0.127028	-0.352899	-0.447672	-0.433762	0.675195	0.039708	-0.300794	-0.773429	-0.317523	0.717215	-0.136975	-0.066435	-1.519327	-1.310213	1.028554	0.687899	0.233344	-0.018893	-1.223342	0.089413	0.393616	0.740219	0.616461	0.048611	-0.594218	0.466056	0.536796	0.527340	0.595141	1.470364	0.858021
-121.000000	-0.011730	-0.376918	0.745398	-0.108434	-0.340335	-0.409363	-0.427314	0.736771	-0.024126	-0.301135	-1.014287	-0.333355	0.770020	-0.068302	-0.116574	-2.154555	-1.515595	0.895766	0.808369	0.325203	-0.045287	-1.310228	0.005395	0.728518	0.831714	0.692756	0.106395	-0.554974	0.628177	0.592407	0.576115	0.669506	1.652254	0.958670
-120.000000	0.036086	-0.472013	0.755366	-0.114571	-0.329503	-0.386064	-0.450809	0.736842	-0.057636	-0.291110	-1.088702	-0.366849	0.766310	0.103026	-0.139158	-2.325104	-1.446796	0.768401	0.875258	0.474061	-0.061510	-1.387898	-0.089564	0.975795	0.882016	0.774622	0.120123	-0.574703	0.685631	0.558712	0.503608	0.566137	1.696622	0.995915
-119.000000	0.064880	-0.514840	0.677124	-0.134680	-0.296320	-0.333287	-0.479490	0.664690	-0.044181	-0.262197	-1.024825	-0.358136	0.695987	0.360568	-0.126194	-2.172031	-0.988487	0.646635	0.848179	0.641019	-0.063598	-1.424267	-0.133412	0.872479	0.847005	0.850393	0.088016	-0.656567	0.535170	0.487896	0.371683	0.360785	1.559685	0.883502
-118.000000	0.055979	-0.526894	0.564184	-0.136754	-0.241537	-0.266060	-0.567035	0.543719	-0.020624	-0.207610	-0.849984	-0.360733	0.583086	0.505009	-0.104259	-1.814421	-0.419276	0.531516	0.757508	0.697917	-0.055280	-1.279799	-0.064358	0.575167	0.750429	0.864771	0.034218	-0.709565	0.237212	0.441010	0.272405	0.210058	1.219734	0.585010
-117.000000	0.041827	-0.467809	0.469663	-0.106464	-0.201247	-0.236815	-0.667310	0.444288	-0.028865	-0.177998	-0.633718	-0.394487	0.493464	0.380352	-0.126991	-1.365931	-0.152004	0.510694	0.686407	0.563825	-0.071215	-0.965040	0.184964	0.435528	0.670309	0.765656	-0.037905	-0.689200	-0.082311	0.411907	0.214149	0.132278	0.816483	0.245325
-116.000000	0.051507	-0.254833	0.394924	-0.078809	-0.190403	-0.261883	-0.668160	0.380087	-0.065679	-0.200349	-0.480528	-0.430158	0.432561	0.105602	-0.208700	-0.957679	-0.232146	0.597954	0.640398	0.314385	-0.125456	-0.594466	0.597008	0.511221	0.625313	0.580151	-0.128018	-0.591627	-0.337431	0.353920	0.154801	0.066495	0.483313	0.008254
-115.000000	0.063920	0.035378	0.334838	-0.088252	-0.189136	-0.294805	-0.533956	0.324813	-0.142511	-0.243975	-0.406181	-0.405687	0.386671	-0.184051	-0.314192	-0.654152	-0.278282	0.710567	0.584016	0.064733	-0.204577	-0.303689	0.969481	0.545960	0.594865	0.379476	-0.213276	-0.454937	-0.460532	0.266962	0.093787	0.016724	0.251830	-0.092607
-114.000000	0.038151	0.215054	0.300782	-0.154675	-0.193643	-0.277895	-0.325358	0.285548	-0.267984	-0.277379	-0.336702	-0.273516	0.370569	-0.455010	-0.400359	-0.439844	0.073558	0.749443	0.522698	-0.128608	-0.279026	-0.187643	1.023775	0.410494	0.563469	0.214147	-0.256393	-0.345831	-0.434368	0.192137	0.058526	0.015883	0.129841	-0.057410
-113.000000	-0.064217	0.181686	0.283736	-0.271420	-0.205737	-0.195348	-0.141112	0.263264	-0.398967	-0.298267	-0.252812	-0.063618	0.369386	-0.649389	-0.428580	-0.295494	0.644791	0.686354	0.484458	-0.240162	-0.296223	-0.136304	0.579795	0.269391	0.534596	0.126685	-0.241152	-0.236761	-0.312028	0.168322	0.062468	0.072658	0.021591	0.073519
-112.000000	-0.223332	0.003039	0.273013	-0.378375	-0.229970	-0.063408	0.003881	0.256863	-0.478787	-0.301921	-0.188852	0.193775	0.365605	-0.702032	-0.396350	-0.216697	1.105077	0.551036	0.485377	-0.262535	-0.247847	-0.094866	-0.188531	0.192930	0.522534	0.123888	-0.183239	-0.142519	-0.219967	0.209123	0.086992	0.146098	-0.190891	0.261081
-111.000000	-0.388515	-0.209096	0.283896	-0.417426	-0.258479	0.067216	0.120330	0.282975	-0.477037	-0.276592	-0.128778	0.445249	0.368249	-0.630414	-0.330624	-0.156455	1.377378	0.386424	0.506017	-0.225443	-0.185407	-0.119086	-0.850027	0.144160	0.523298	0.149232	-0.116693	-0.146644	-0.241893	0.268595	0.088347	0.147241	-0.425749	0.488811
-110.000000	-0.511530	-0.390830	0.295809	-0.380029	-0.280441	0.112612	0.170356	0.310042	-0.423972	-0.242489	-0.036899	0.590141	0.358772	-0.515344	-0.254146	-0.038151	1.455967	0.258974	0.496019	-0.183476	-0.139991	-0.132701	-1.161260	0.140374	0.507293	0.135363	-0.066175	-0.190424	-0.283607	0.283546	0.047068	0.069128	-0.538097	0.657566
-109.000000	-0.535864	-0.514983	0.305922	-0.308871	-0.327081	0.043440	0.154161	0.313799	-0.370636	-0.243928	0.040445	0.588499	0.337218	-0.417263	-0.203318	0.105405	1.360012	0.304751	0.456305	-0.172771	-0.127554	-0.051397	-1.151053	0.097753	0.462282	0.063415	-0.037849	-0.174378	-0.220331	0.250470	-0.018461	-0.008141	-0.511873	0.663702
-108.000000	-0.434009	-0.521973	0.348035	-0.261956	-0.407443	-0.119206	0.116466	0.332169	-0.346392	-0.295619	0.035658	0.472214	0.341993	-0.385481	-0.188159	0.197359	1.082374	0.554942	0.425938	-0.203388	-0.162840	0.085208	-0.956372	-0.025845	0.422555	-0.026766	-0.028992	-0.108973	-0.061152	0.219578	-0.064287	-0.035638	-0.366718	0.544497
-107.000000	-0.230487	-0.330296	0.399580	-0.252324	-0.487175	-0.321487	0.096799	0.371808	-0.362455	-0.366357	-0.006843	0.302707	0.375525	-0.436679	-0.183991	0.286485	0.536062	0.805356	0.412756	-0.270312	-0.221857	0.156608	-0.647077	-0.153551	0.413790	-0.090022	-0.034324	-0.053373	0.138879	0.216867	-0.068333	0.003724	-0.164556	0.387459
-106.000000	-0.018214	-0.059227	0.402884	-0.270317	-0.546798	-0.453609	0.090003	0.386782	-0.410140	-0.426229	0.007090	0.100382	0.392332	-0.518487	-0.186306	0.436071	-0.172198	0.855781	0.388433	-0.347152	-0.276599	0.113137	-0.166746	-0.230402	0.404386	-0.123389	-0.042385	-0.025929	0.370054	0.226164	-0.030384	0.131013	-0.049814	0.222988
-105.000000	0.113779	0.074737	0.349513	-0.303433	-0.570929	-0.439549	0.083007	0.358244	-0.478299	-0.474068	0.037294	-0.089798	0.362515	-0.573122	-0.224410	0.507511	-0.736956	0.699638	0.329908	-0.400658	-0.328807	0.027888	0.472748	-0.205283	0.353473	-0.154883	-0.049659	-0.006416	0.597918	0.244428	0.065567	0.358102	-0.087785	0.064704
-104.000000	0.199546	0.089226	0.284925	-0.307152	-0.528074	-0.283112	0.123317	0.311466	-0.520655	-0.506390	-0.049857	-0.124425	0.302320	-0.550800	-0.306539	0.216807	-1.089338	0.475735	0.250805	-0.408400	-0.392560	-0.071973	1.160099	-0.014517	0.264174	-0.190347	-0.079425	0.004568	0.740832	0.247211	0.172826	0.579706	-0.196790	-0.026592
-103.000000	0.285543	0.126642	0.216066	-0.253175	-0.419374	-0.041512	0.244007	0.244439	-0.488430	-0.501420	-0.249583	0.011149	0.212999	-0.400707	-0.386895	-0.416693	-1.290817	0.276405	0.154946	-0.352177	-0.459411	-0.202045	1.728729	0.345668	0.161231	-0.196221	-0.133354	-0.014982	0.758096	0.197390	0.195987	0.647500	-0.288329	0.014028
-102.000000	0.318182	0.203686	0.123426	-0.169836	-0.289753	0.171575	0.375183	0.146073	-0.393495	-0.456261	-0.403941	0.186566	0.090225	-0.117168	-0.417611	-0.972433	-1.218169	0.095462	0.053621	-0.201093	-0.493257	-0.309305	1.920277	0.722375	0.063318	-0.147169	-0.185010	-0.059818	0.657101	0.091866	0.100043	0.515337	-0.320942	0.215379
-101.000000	0.259934	0.242908	0.033808	-0.086432	-0.183469	0.261311	0.420478	0.052486	-0.272234	-0.374058	-0.410404	0.326751	-0.020492	0.202869	-0.380334	-1.166524	-0.813509	-0.074746	-0.020804	0.014688	-0.477122	-0.300638	1.568309	0.931907	-0.014556	-0.069665	-0.210208	-0.068595	0.469375	-0.041527	-0.054611	0.255101	-0.238909	0.531208
-100.000000	0.125464	0.223457	-0.032528	-0.023233	-0.116202	0.252430	0.384110	-0.012395	-0.178440	-0.266233	-0.291936	0.422318	-0.083254	0.380990	-0.304524	-1.046154	-0.200560	-0.213206	-0.056949	0.144590	-0.426832	-0.127406	0.769113	0.876603	-0.061896	-0.014312	-0.196279	0.009971	0.261106	-0.109692	-0.144389	0.056267	-0.039717	0.823492
-99.000000	-0.065197	0.206293	-0.090799	-0.011006	-0.081410	0.234290	0.354564	-0.072868	-0.141131	-0.185614	-0.107953	0.524939	-0.123682	0.346848	-0.241292	-0.734404	0.538747	-0.259971	-0.084003	0.102502	-0.372032	0.114110	-0.145622	0.588916	-0.096154	-0.013467	-0.183300	0.121197	0.099885	-0.060321	-0.146653	-0.015414	0.143074	0.991081
-98.000000	-0.274961	0.206589	-0.117994	-0.058105	-0.087704	0.230177	0.362044	-0.117961	-0.176024	-0.173627	0.088556	0.599617	-0.138495	0.134496	-0.227715	-0.293242	1.254168	-0.169069	-0.100484	-0.073589	-0.352491	0.289663	-0.822249	0.311768	-0.120405	-0.085985	-0.208772	0.190218	0.026708	0.043014	-0.118313	-0.019831	0.162831	1.006113
-97.000000	-0.468645	0.196396	-0.097931	-0.145961	-0.149828	0.207503	0.355351	-0.113344	-0.311867	-0.230958	0.283267	0.520675	-0.114173	-0.244389	-0.256961	0.284010	1.690243	-0.008525	-0.089395	-0.353547	-0.379580	0.425744	-1.090282	0.268232	-0.128184	-0.239898	-0.245702	0.248053	0.035309	0.127635	-0.052781	0.079531	0.038592	0.865232
-96.000000	-0.586611	0.215014	-0.102036	-0.253078	-0.249977	0.161477	0.346242	-0.109926	-0.492282	-0.319815	0.486101	0.328936	-0.110583	-0.663461	-0.290312	0.960121	1.780795	0.109940	-0.121272	-0.658346	-0.412644	0.572955	-0.906993	0.351979	-0.174348	-0.439669	-0.269400	0.320508	0.062528	0.165077	0.034427	0.264650	-0.117450	0.612617
-95.000000	-0.549383	0.276536	-0.137895	-0.332114	-0.331547	0.138446	0.386695	-0.129080	-0.607566	-0.387493	0.619172	0.183268	-0.132764	-0.924612	-0.326354	1.444905	1.601991	0.197941	-0.196896	-0.853562	-0.424365	0.638978	-0.383558	0.314607	-0.244287	-0.587289	-0.292342	0.343301	0.066897	0.156835	0.074938	0.396600	-0.224091	0.335957
-94.000000	-0.409789	0.315563	-0.130835	-0.358317	-0.381926	0.180967	0.478014	-0.120557	-0.624657	-0.438169	0.559927	0.233221	-0.126474	-0.966422	-0.374895	1.351810	1.331636	0.307951	-0.220421	-0.878821	-0.425732	0.517651	0.145284	0.237179	-0.242667	-0.614568	-0.327866	0.292625	0.097237	0.136823	0.051390	0.404838	-0.277514	0.128918
-93.000000	-0.291553	0.319180	-0.084961	-0.371638	-0.436942	0.253400	0.567993	-0.087121	-0.591482	-0.496229	0.367223	0.483562	-0.091075	-0.844314	-0.424281	0.777674	1.231393	0.404978	-0.184373	-0.766466	-0.427925	0.291621	0.289289	0.310208	-0.173077	-0.538915	-0.365966	0.231170	0.189016	0.124668	-0.009559	0.344501	-0.302960	0.057388
-92.000000	-0.227208	0.348671	-0.030836	-0.394249	-0.481512	0.269800	0.571105	-0.033043	-0.549246	-0.531846	0.213452	0.708538	-0.039856	-0.670634	-0.451349	0.235864	1.228153	0.463179	-0.122204	-0.587462	-0.417303	0.141559	-0.058747	0.450376	-0.086456	-0.408262	-0.386684	0.204343	0.281443	0.122299	-0.059495	0.297611	-0.262238	0.148010
-91.000000	-0.196457	0.472767	0.014877	-0.408649	-0.480515	0.216981	0.530416	0.025523	-0.525458	-0.522352	0.119137	0.778651	0.000353	-0.566217	-0.446277	-0.066855	1.080770	0.481436	-0.060734	-0.428296	-0.387320	0.121649	-0.561257	0.559677	-0.019913	-0.277865	-0.397571	0.215210	0.332158	0.153017	-0.051299	0.294415	-0.198181	0.381792
-90.000000	-0.169492	0.640100	0.030619	-0.401954	-0.433094	0.202103	0.561258	0.051932	-0.531754	-0.494121	0.015384	0.788558	0.013651	-0.541394	-0.442495	-0.257826	0.905701	0.406190	-0.032645	-0.343006	-0.372664	0.167126	-0.792378	0.598229	-0.000463	-0.194119	-0.420604	0.224182	0.329637	0.199283	-0.017381	0.311435	-0.252652	0.625274
-89.000000	-0.148196	0.692404	0.006911	-0.399215	-0.362334	0.280144	0.633905	0.029828	-0.543657	-0.449719	-0.059709	0.761347	-0.001285	-0.522996	-0.451210	-0.320327	0.857300	0.226174	-0.048482	-0.310906	-0.381790	0.206676	-0.610787	0.511362	-0.023628	-0.162010	-0.453911	0.198271	0.241531	0.244459	0.015609	0.344243	-0.403533	0.687759
-88.000000	-0.155306	0.598974	-0.072114	-0.415930	-0.270810	0.361685	0.636125	-0.065601	-0.515690	-0.348375	0.003210	0.594531	-0.078148	-0.461260	-0.419925	-0.104170	0.675370	0.044434	-0.123334	-0.283849	-0.376763	0.283036	-0.175404	0.330664	-0.105872	-0.154878	-0.469631	0.211895	0.107857	0.277630	0.052426	0.419223	-0.470270	0.538523
-87.000000	-0.186826	0.465874	-0.192612	-0.396105	-0.145972	0.372540	0.544907	-0.205384	-0.381861	-0.193759	0.160643	0.303001	-0.204532	-0.318161	-0.325788	0.294897	0.186362	-0.101915	-0.251192	-0.225528	-0.350227	0.430369	0.307851	0.081595	-0.246700	-0.152047	-0.443611	0.305415	0.062820	0.245219	0.062557	0.498171	-0.424912	0.295299
-86.000000	-0.226361	0.322969	-0.313376	-0.310809	-0.002768	0.342824	0.434094	-0.325706	-0.161488	-0.039988	0.312890	0.046539	-0.321793	-0.123474	-0.210055	0.652132	-0.264637	-0.253258	-0.383919	-0.145107	-0.324616	0.497550	0.711307	-0.248104	-0.395926	-0.140618	-0.405707	0.374124	0.180843	0.154054	0.052873	0.515511	-0.405028	0.046285
-85.000000	-0.249073	0.160250	-0.394161	-0.213911	0.131021	0.294240	0.331522	-0.393510	0.010302	0.085340	0.476204	-0.110611	-0.390637	0.012676	-0.121262	0.954877	-0.390629	-0.331406	-0.478100	-0.089679	-0.317347	0.381081	0.830742	-0.511377	-0.499132	-0.113795	-0.407237	0.343377	0.372788	0.072851	0.060665	0.493930	-0.401520	-0.195727
-84.000000	-0.242832	0.031489	-0.402396	-0.157350	0.237148	0.205628	0.212543	-0.400321	0.056610	0.169506	0.625241	-0.185343	-0.408817	0.040102	-0.083444	1.172255	-0.206562	-0.279801	-0.512832	-0.075661	-0.334452	0.169451	0.543972	-0.530455	-0.523232	-0.080652	-0.446696	0.250224	0.499233	0.065329	0.102166	0.489949	-0.307098	-0.403678
-83.000000	-0.203400	-0.047146	-0.333591	-0.132570	0.316485	0.130312	0.119668	-0.350235	0.037254	0.207970	0.687055	-0.112417	-0.378216	0.014145	-0.096322	1.128750	0.207683	-0.203781	-0.465883	-0.083095	-0.356583	-0.033041	-0.036265	-0.358690	-0.470409	-0.052762	-0.483291	0.130665	0.462127	0.145195	0.150642	0.459745	-0.141751	-0.486127
-82.000000	-0.125500	-0.098311	-0.234314	-0.109548	0.373287	0.166940	0.120454	-0.270388	0.024493	0.232102	0.652723	0.106662	-0.307677	0.007701	-0.123891	0.816252	0.669164	-0.196281	-0.353535	-0.071522	-0.347243	-0.147166	-0.686682	-0.122347	-0.364977	-0.030861	-0.483700	0.002371	0.229676	0.235840	0.133987	0.302287	0.010865	-0.436943
-81.000000	-0.038924	-0.110696	-0.185922	-0.103406	0.399999	0.273570	0.155438	-0.223858	-0.003583	0.248165	0.608307	0.274484	-0.249270	0.019106	-0.104350	0.563282	0.984591	-0.236646	-0.267349	-0.032839	-0.283672	-0.055061	-1.181744	0.047875	-0.264476	-0.001321	-0.433027	-0.059199	-0.095852	0.267475	0.040352	0.048552	0.149919	-0.350004
-80.000000	0.023251	-0.064757	-0.184994	-0.113356	0.384896	0.309823	0.135968	-0.213339	-0.042438	0.248792	0.599362	0.298298	-0.218457	0.024644	-0.038920	0.577328	1.067292	-0.262232	-0.246269	-0.000519	-0.203483	0.208731	-1.428998	0.023880	-0.219547	0.028226	-0.342701	-0.020054	-0.334191	0.233211	-0.066820	-0.162627	0.316769	-0.258866
-79.000000	0.057949	-0.013115	-0.171535	-0.116497	0.330787	0.284932	0.128281	-0.193205	-0.038826	0.259704	0.546404	0.340924	-0.189879	0.023306	0.009127	0.606076	0.977546	-0.292190	-0.249741	0.006211	-0.161216	0.358117	-1.401657	-0.029542	-0.214753	0.015844	-0.256587	0.020634	-0.382205	0.136533	-0.138043	-0.253386	0.467664	-0.114991
-78.000000	0.062302	-0.014362	-0.145273	-0.121909	0.263636	0.294718	0.225433	-0.163752	-0.002826	0.262934	0.399336	0.502134	-0.167612	0.018296	-0.003580	0.402458	0.909392	-0.394904	-0.247642	-0.018158	-0.159036	0.197165	-0.979171	0.114928	-0.223102	-0.033837	-0.214092	-0.029993	-0.309370	-0.001990	-0.170532	-0.251590	0.543338	0.094846
-77.000000	0.027923	-0.069487	-0.141064	-0.138008	0.183501	0.308323	0.365953	-0.163644	0.041126	0.207604	0.182639	0.666680	-0.184401	0.028499	-0.071599	-0.005487	0.964807	-0.535941	-0.250368	-0.049073	-0.181796	-0.150473	-0.104208	0.405177	-0.247891	-0.065826	-0.214338	-0.127923	-0.199605	-0.118580	-0.170119	-0.192399	0.486224	0.284104
-76.000000	-0.058223	-0.179247	-0.170274	-0.187972	0.054237	0.254941	0.425400	-0.207612	0.068352	0.095513	-0.056364	0.690457	-0.230165	0.050767	-0.157398	-0.487554	0.971321	-0.601301	-0.272078	-0.046508	-0.220193	-0.448077	0.984754	0.745068	-0.273533	-0.057626	-0.218324	-0.151435	-0.016484	-0.157310	-0.111494	-0.031639	0.299898	0.432368
-75.000000	-0.154606	-0.276969	-0.200211	-0.269184	-0.095432	0.189216	0.437404	-0.241314	0.045709	-0.017619	-0.259217	0.620391	-0.250906	0.059638	-0.225691	-0.967051	0.711570	-0.486700	-0.278524	-0.016949	-0.252641	-0.635417	1.864935	1.052998	-0.266396	-0.025911	-0.200716	-0.085738	0.190241	-0.154948	-0.009634	0.199674	0.145658	0.600541
-74.000000	-0.167480	-0.250144	-0.211419	-0.315929	-0.178281	0.190461	0.521442	-0.237010	-0.006600	-0.076917	-0.360373	0.613788	-0.250986	0.032767	-0.258069	-1.353180	0.343303	-0.260874	-0.268558	-0.004645	-0.258666	-0.739284	2.278765	1.197809	-0.242634	-0.013284	-0.189211	-0.017979	0.262670	-0.182559	0.048799	0.354278	0.116392	0.744477
-73.000000	-0.075999	-0.138245	-0.214764	-0.291614	-0.154337	0.285247	0.676204	-0.227372	-0.028677	-0.072551	-0.320318	0.701806	-0.251471	0.000783	-0.263550	-1.473141	0.153851	-0.128238	-0.267014	-0.020054	-0.250673	-0.768853	2.274311	1.142415	-0.231638	-0.058291	-0.213684	-0.023310	0.140491	-0.256149	0.002077	0.352756	0.109877	0.762956
-72.000000	0.062167	-0.048389	-0.224066	-0.227525	-0.050143	0.452888	0.801132	-0.227813	0.000530	-0.031053	-0.159684	0.772537	-0.243583	0.062858	-0.243641	-1.236940	0.110159	-0.144785	-0.250295	-0.004490	-0.239236	-0.733364	1.987224	0.906541	-0.219676	-0.126709	-0.248371	-0.106003	-0.112528	-0.362088	-0.125507	0.209852	0.031174	0.633979
-71.000000	0.160670	-0.006292	-0.250750	-0.188626	0.076962	0.583100	0.776720	-0.251887	0.050237	0.022346	0.067097	0.656280	-0.238485	0.220765	-0.178271	-0.669759	0.028940	-0.228924	-0.221016	0.065423	-0.199973	-0.529937	1.464277	0.538133	-0.218375	-0.158962	-0.240124	-0.135418	-0.349804	-0.454777	-0.234227	0.044657	-0.015198	0.410853
-70.000000	0.204410	0.019907	-0.239666	-0.173936	0.201291	0.645695	0.621617	-0.263454	0.057479	0.088300	0.309515	0.357996	-0.200741	0.251150	-0.101017	0.033930	-0.127031	-0.269225	-0.181612	0.074623	-0.144916	-0.172217	0.693706	0.207984	-0.215640	-0.187752	-0.198425	-0.048538	-0.466073	-0.498819	-0.266752	-0.011788	0.091989	0.183193
-69.000000	0.288691	0.132557	-0.096294	-0.104051	0.337979	0.719489	0.551609	-0.152873	0.010080	0.163246	0.477030	0.180555	-0.053485	0.008384	-0.078707	0.442186	-0.250761	-0.199606	-0.068505	-0.071033	-0.138336	0.057586	-0.256872	0.055751	-0.118379	-0.283755	-0.204603	0.020896	-0.488737	-0.525569	-0.307537	-0.046937	0.223594	0.008090
-68.000000	0.425813	0.347175	0.155095	0.046477	0.482118	0.779228	0.652953	0.083309	-0.020402	0.236576	0.501257	0.260250	0.179643	-0.297964	-0.088595	0.378516	-0.320981	-0.095362	0.138460	-0.278811	-0.184805	0.021673	-1.186458	0.022346	0.092307	-0.407167	-0.282125	-0.013966	-0.452118	-0.542033	-0.423427	-0.208982	0.215921	-0.106084
-67.000000	0.500122	0.520966	0.402211	0.227379	0.602914	0.765440	0.753110	0.329160	0.005133	0.318782	0.463761	0.366800	0.405427	-0.446054	-0.067827	0.202766	-0.448543	-0.092252	0.366714	-0.423576	-0.223321	-0.106287	-1.873443	-0.014097	0.319271	-0.475508	-0.363280	-0.100585	-0.367984	-0.530338	-0.559571	-0.457292	0.124730	-0.128447
-66.000000	0.444168	0.592215	0.572436	0.380257	0.692729	0.738536	0.745339	0.498049	0.087624	0.413431	0.454672	0.350716	0.561239	-0.435413	-0.018629	0.139933	-0.732081	-0.204592	0.530830	-0.480150	-0.225981	-0.213946	-2.096029	-0.035796	0.482399	-0.485786	-0.408114	-0.195506	-0.298966	-0.511054	-0.658294	-0.684233	0.047536	-0.078894
-65.000000	0.339470	0.635868	0.624891	0.474810	0.751902	0.737629	0.686538	0.553393	0.205972	0.492952	0.453719	0.265133	0.609648	-0.340873	0.034528	0.062693	-1.048295	-0.296321	0.583408	-0.479807	-0.219152	-0.343384	-1.734598	-0.016144	0.550521	-0.475642	-0.447327	-0.304604	-0.294095	-0.498019	-0.710487	-0.854327	-0.005484	-0.038414
-64.000000	0.280190	0.628324	0.557503	0.490113	0.764721	0.755723	0.617167	0.498627	0.290990	0.525809	0.444912	0.204792	0.545752	-0.237559	0.056723	-0.021354	-1.088529	-0.260426	0.522329	-0.481551	-0.234338	-0.422392	-1.069591	0.038921	0.513447	-0.496524	-0.506011	-0.387688	-0.318420	-0.511234	-0.738440	-0.961988	-0.007453	-0.026699
-63.000000	0.233250	0.519370	0.427483	0.412293	0.716030	0.756238	0.555816	0.387630	0.283675	0.505979	0.454367	0.222459	0.430290	-0.173802	0.023856	0.027741	-0.763592	-0.117288	0.407950	-0.506181	-0.261791	-0.318982	-0.683067	0.189384	0.420205	-0.557027	-0.560049	-0.379513	-0.324352	-0.570707	-0.765059	-0.992608	0.038930	-0.004890
-62.000000	0.160248	0.387615	0.326288	0.276706	0.602131	0.647989	0.504416	0.298202	0.192623	0.446807	0.496530	0.228438	0.346773	-0.181546	-0.032167	0.247246	-0.353830	0.072152	0.336777	-0.532918	-0.271801	-0.045197	-0.860862	0.431953	0.356049	-0.617738	-0.573143	-0.279002	-0.294343	-0.638315	-0.763586	-0.914494	0.065775	0.076576
-61.000000	0.099674	0.277709	0.315801	0.165273	0.457615	0.480451	0.432898	0.293369	0.067074	0.365244	0.533448	0.133732	0.338196	-0.251731	-0.086267	0.523524	-0.218243	0.242012	0.347650	-0.551588	-0.265749	0.213501	-1.339045	0.702889	0.362530	-0.658117	-0.540900	-0.152197	-0.183279	-0.680417	-0.712096	-0.712963	0.053565	0.223372
-60.000000	0.090474	0.195662	0.368979	0.129361	0.325516	0.381558	0.369035	0.360522	-0.051665	0.274781	0.487725	0.026914	0.392256	-0.290467	-0.140393	0.589727	-0.359630	0.366541	0.402137	-0.534850	-0.270760	0.217372	-1.650854	0.870268	0.410164	-0.655125	-0.496572	-0.100307	0.049620	-0.681895	-0.623742	-0.452353	0.071748	0.374239
-59.000000	0.113583	0.185482	0.413731	0.139701	0.223982	0.384223	0.365851	0.423760	-0.097035	0.198702	0.359350	0.010430	0.445027	-0.179750	-0.177074	0.320082	-0.574772	0.435725	0.458853	-0.431673	-0.285081	-0.071506	-1.558124	0.740927	0.448776	-0.589818	-0.472179	-0.183353	0.309301	-0.617016	-0.501868	-0.238237	0.167781	0.471590
-58.000000	0.126963	0.194591	0.422661	0.169249	0.180634	0.468206	0.397116	0.450585	-0.021661	0.165603	0.237606	0.054362	0.454485	0.089956	-0.173868	-0.028960	-0.815562	0.402154	0.502489	-0.251633	-0.286316	-0.441027	-1.169228	0.407590	0.456543	-0.483462	-0.476790	-0.362077	0.449005	-0.546078	-0.413594	-0.159540	0.234197	0.476321
-57.000000	0.120837	0.130398	0.408189	0.218227	0.196494	0.552935	0.386012	0.451022	0.109207	0.160731	0.151294	0.109507	0.440132	0.386533	-0.138657	-0.269813	-0.975799	0.275510	0.505508	-0.080004	-0.276560	-0.681572	-0.648357	0.181887	0.430030	-0.395382	-0.502494	-0.527508	0.470957	-0.539636	-0.426660	-0.222969	0.166327	0.375668
-56.000000	0.093137	0.021910	0.361422	0.255999	0.229017	0.546320	0.302394	0.412099	0.210127	0.145346	0.058946	0.184024	0.396292	0.620977	-0.102468	-0.525732	-0.818936	0.115847	0.448243	0.059139	-0.262291	-0.789319	-0.033530	0.052000	0.377460	-0.351928	-0.525244	-0.606421	0.443418	-0.532048	-0.464212	-0.321982	0.073372	0.216707
-55.000000	0.067178	-0.066565	0.298912	0.273245	0.254826	0.460069	0.180986	0.347463	0.239001	0.110905	-0.015025	0.242273	0.325211	0.712858	-0.095673	-0.766214	-0.335275	0.010033	0.378819	0.141589	-0.258897	-0.862016	0.617445	-0.188155	0.326323	-0.338968	-0.541385	-0.624609	0.387748	-0.467118	-0.441713	-0.373275	0.115679	0.092201
-54.000000	0.087340	-0.053941	0.301040	0.323295	0.283553	0.335853	0.058852	0.346887	0.202873	0.082596	0.003319	0.172427	0.316868	0.478601	-0.121339	-0.727688	0.072109	0.084035	0.378812	0.020162	-0.284088	-0.877223	1.174285	-0.514394	0.338365	-0.386094	-0.566790	-0.621142	0.325225	-0.393920	-0.413609	-0.426271	0.301983	0.133941
-53.000000	0.118392	0.090263	0.371076	0.407665	0.324491	0.202480	-0.044130	0.424681	0.157171	0.091778	0.114636	-0.046413	0.385038	-0.054182	-0.154240	-0.351267	0.029287	0.284948	0.442463	-0.344011	-0.320662	-0.757656	1.634337	-0.698209	0.424066	-0.517213	-0.586309	-0.581604	0.311611	-0.363963	-0.448965	-0.545557	0.502333	0.378814
-52.000000	0.134109	0.302585	0.395361	0.439001	0.348967	0.107915	-0.090363	0.457323	0.101483	0.110814	0.192042	-0.266284	0.407085	-0.581454	-0.195336	0.042154	-0.281578	0.407126	0.460483	-0.742105	-0.358606	-0.584137	2.152979	-0.612393	0.477308	-0.665925	-0.577464	-0.500647	0.390162	-0.349547	-0.492761	-0.628295	0.533503	0.667503
-51.000000	0.176172	0.507895	0.341357	0.397886	0.345223	0.085643	-0.070173	0.399556	0.019402	0.095466	0.097770	-0.365696	0.342630	-0.870688	-0.242643	0.034637	-0.489454	0.412625	0.392702	-0.950232	-0.402893	-0.550792	2.780674	-0.437927	0.428052	-0.737547	-0.533572	-0.433785	0.507703	-0.279843	-0.456503	-0.543646	0.396420	0.845102
-50.000000	0.243841	0.645105	0.270372	0.345799	0.347845	0.157518	0.005509	0.315497	-0.063018	0.060069	-0.107773	-0.350316	0.260788	-0.905913	-0.268947	-0.386380	-0.528337	0.391835	0.291397	-0.950183	-0.440019	-0.680188	3.386517	-0.381729	0.314759	-0.724005	-0.470266	-0.418303	0.553718	-0.170622	-0.359400	-0.385173	0.302127	0.913736
-49.000000	0.333154	0.709038	0.207361	0.325861	0.378763	0.277948	0.147519	0.235413	-0.118133	0.028274	-0.250982	-0.246738	0.198066	-0.795083	-0.263243	-0.813065	-0.526324	0.432186	0.181849	-0.858586	-0.444181	-0.799870	3.721633	-0.451646	0.183267	-0.684049	-0.419277	-0.436161	0.471650	-0.096855	-0.297044	-0.330742	0.309972	0.908885
-48.000000	0.447894	0.699697	0.176746	0.352971	0.425247	0.338223	0.301117	0.187047	-0.105494	0.022485	-0.287694	-0.090690	0.166057	-0.624648	-0.226005	-1.007269	-0.631554	0.541152	0.108347	-0.724526	-0.399473	-0.825396	3.538434	-0.549558	0.090019	-0.616197	-0.365964	-0.468814	0.293901	-0.069992	-0.289340	-0.406722	0.309769	0.813987
-47.000000	0.531963	0.631681	0.178510	0.393381	0.454445	0.283285	0.348843	0.182512	-0.044810	0.052619	-0.223089	0.004129	0.169976	-0.436338	-0.175161	-0.965217	-0.795344	0.590825	0.089569	-0.556433	-0.314946	-0.748247	2.860914	-0.573231	0.058612	-0.497502	-0.267663	-0.460613	0.087249	-0.059735	-0.280524	-0.519662	0.327557	0.662520
-46.000000	0.521939	0.539504	0.143956	0.376635	0.443839	0.130239	0.230078	0.150195	-0.019293	0.085206	-0.013046	-0.094321	0.150528	-0.272166	-0.115841	-0.600717	-0.844436	0.512311	0.047859	-0.404382	-0.202254	-0.512633	1.975997	-0.485058	0.017959	-0.370221	-0.140382	-0.345404	-0.092540	-0.027364	-0.231850	-0.554338	0.434366	0.559132
-45.000000	0.416179	0.413985	0.041449	0.281605	0.375042	-0.081698	-0.007198	0.048563	-0.021142	0.091704	0.222146	-0.341663	0.056636	-0.100451	-0.030866	-0.006751	-0.770830	0.418644	-0.038033	-0.246121	-0.074887	-0.151595	1.047082	-0.363217	-0.049560	-0.237676	-0.016378	-0.149194	-0.226390	0.065307	-0.123041	-0.441652	0.516925	0.558053
-44.000000	0.246147	0.285096	-0.090207	0.154957	0.248859	-0.258304	-0.196289	-0.075540	-0.005249	0.068509	0.261470	-0.497437	-0.062428	0.119551	0.052799	0.434034	-0.535526	0.380662	-0.116966	-0.036384	0.033070	0.172628	0.126776	-0.306598	-0.102500	-0.081308	0.104699	0.022341	-0.338189	0.186958	0.024027	-0.219657	0.401584	0.649372
-43.000000	0.045265	0.205159	-0.195184	0.028090	0.106699	-0.293904	-0.201162	-0.171364	-0.006784	0.028243	0.148933	-0.420038	-0.147894	0.263166	0.084414	0.534533	-0.018819	0.315432	-0.163413	0.130575	0.087156	0.338669	-0.651241	-0.225629	-0.138917	0.045703	0.182821	0.096871	-0.424692	0.266607	0.145818	0.004889	0.108741	0.752946
-42.000000	-0.126136	0.151811	-0.202044	-0.071193	0.003131	-0.210836	-0.077307	-0.178669	-0.051950	-0.004935	0.062090	-0.200679	-0.144343	0.183838	0.064484	0.430911	0.624285	0.233741	-0.137855	0.148986	0.094096	0.359921	-1.241541	-0.018329	-0.116165	0.104707	0.173566	0.091284	-0.491612	0.273124	0.173882	0.099736	-0.170816	0.755078
-41.000000	-0.206820	0.072026	-0.099948	-0.094949	-0.029269	-0.082838	0.069966	-0.092226	-0.097930	-0.009807	0.018079	0.022840	-0.040893	-0.038422	0.042207	0.223385	1.140965	0.221198	-0.041831	0.076208	0.100645	0.287913	-1.631457	0.202707	-0.006719	0.145699	0.117057	0.026864	-0.591297	0.217073	0.088285	-0.008710	-0.327614	0.591774
-40.000000	-0.219219	-0.039082	-0.028056	-0.069363	-0.002968	0.050994	0.187626	-0.037967	-0.109006	0.022353	0.033524	0.152573	0.017038	-0.183994	0.075283	0.027488	1.520930	0.177270	0.022715	0.053345	0.145600	0.194855	-1.671893	0.293017	0.069046	0.236526	0.079068	-0.070006	-0.720544	0.112329	-0.052595	-0.266889	-0.367693	0.277796
-39.000000	-0.220263	-0.115954	-0.098907	-0.066603	0.050237	0.166497	0.227831	-0.109407	-0.098008	0.070083	0.146728	0.141954	-0.083062	-0.141722	0.164653	0.052607	1.683085	0.005867	-0.011640	0.149721	0.214249	0.202349	-1.213079	0.166181	0.017420	0.369304	0.080941	-0.115187	-0.804831	-0.037447	-0.199410	-0.594189	-0.331709	-0.050987
-38.000000	-0.228866	-0.134948	-0.252660	-0.104037	0.095431	0.251221	0.206067	-0.259985	-0.074372	0.092585	0.271697	0.086672	-0.270334	0.041091	0.236958	0.230881	1.480443	-0.185021	-0.130898	0.326303	0.261737	0.338175	-0.390138	-0.185855	-0.116883	0.497758	0.109661	-0.045252	-0.783718	-0.185854	-0.313747	-0.864113	-0.286375	-0.263924
-37.000000	-0.266172	-0.193383	-0.347281	-0.148240	0.117701	0.290893	0.135479	-0.356785	-0.030531	0.083648	0.349911	0.044473	-0.378939	0.204331	0.256315	0.406596	0.975250	-0.279544	-0.253265	0.464826	0.282402	0.515719	0.302418	-0.565982	-0.237225	0.586586	0.162161	0.095366	-0.713119	-0.261305	-0.329303	-0.912995	-0.257720	-0.368946
-36.000000	-0.311257	-0.378738	-0.324079	-0.158868	0.144488	0.271900	-0.067747	-0.334869	0.013775	0.079819	0.448290	-0.165731	-0.342644	0.203618	0.268497	0.737487	0.258313	-0.279158	-0.293874	0.467346	0.311517	0.721005	0.386504	-0.728953	-0.270686	0.605940	0.254385	0.235959	-0.690645	-0.193678	-0.188490	-0.679426	-0.210406	-0.422558
-35.000000	-0.291461	-0.639779	-0.252637	-0.123213	0.196704	0.203311	-0.363811	-0.269373	0.040378	0.107369	0.573332	-0.591777	-0.259189	0.088570	0.292373	1.260364	-0.548487	-0.237244	-0.278212	0.374516	0.366159	0.958103	-0.174457	-0.644942	-0.250576	0.563807	0.362735	0.369114	-0.684387	0.026937	0.071852	-0.246076	-0.148800	-0.427885
-34.000000	-0.188165	-0.830922	-0.183310	-0.045509	0.259675	0.159218	-0.528561	-0.208764	0.078510	0.149491	0.574365	-0.883791	-0.187170	0.012575	0.286533	1.465517	-1.098696	-0.118530	-0.252291	0.303664	0.402975	1.050777	-0.984981	-0.463972	-0.226016	0.499475	0.413079	0.458135	-0.626065	0.271308	0.293867	0.147579	-0.124353	-0.395942
-33.000000	-0.071645	-0.869835	-0.147287	0.042199	0.312516	0.223292	-0.427782	-0.169361	0.131099	0.169866	0.409270	-0.734422	-0.149850	0.012145	0.220226	1.025817	-1.029755	0.105598	-0.249466	0.276314	0.366788	0.854753	-1.551271	-0.297747	-0.229919	0.415673	0.367008	0.436104	-0.529319	0.409916	0.380733	0.298341	-0.146554	-0.346622
-32.000000	-0.012253	-0.785998	-0.196447	0.082780	0.344351	0.341427	-0.166490	-0.207656	0.158907	0.167385	0.250674	-0.313550	-0.200919	0.024912	0.109451	0.362997	-0.487040	0.311548	-0.315936	0.234511	0.272923	0.538063	-1.610997	-0.144860	-0.309246	0.289953	0.267543	0.345144	-0.406248	0.450220	0.364795	0.240056	-0.131511	-0.236329
-31.000000	-0.011898	-0.592510	-0.321908	0.059436	0.354673	0.375839	0.070034	-0.325810	0.136329	0.163086	0.197859	0.013155	-0.322403	0.016947	0.011268	-0.055358	0.020210	0.410780	-0.430117	0.172033	0.187460	0.334233	-1.302944	0.042589	-0.435443	0.139873	0.172452	0.293784	-0.261002	0.454696	0.308662	0.123993	-0.012322	-0.029489
-30.000000	-0.043934	-0.313521	-0.438962	0.006626	0.358947	0.321548	0.260058	-0.445313	0.082486	0.170635	0.183722	0.175272	-0.436058	-0.014972	-0.037927	-0.220106	0.225022	0.418515	-0.517958	0.109900	0.144203	0.216505	-0.961892	0.269190	-0.521985	0.015761	0.106790	0.276051	-0.123906	0.448491	0.244932	0.041878	0.103645	0.225248
-29.000000	-0.083057	-0.055434	-0.492953	-0.046780	0.356828	0.290527	0.450871	-0.507655	0.036148	0.196944	0.180473	0.276245	-0.495127	-0.074708	-0.058505	-0.242530	0.229873	0.369094	-0.550570	0.033370	0.126432	0.092681	-0.698980	0.419071	-0.533066	-0.064971	0.059245	0.233848	0.010468	0.408408	0.155559	-0.021750	0.133169	0.436803
-28.000000	-0.126956	0.111340	-0.522243	-0.114376	0.327023	0.326663	0.591100	-0.534622	-0.017558	0.235603	0.246743	0.348538	-0.521253	-0.154135	-0.058847	-0.064100	0.301651	0.264429	-0.562082	-0.062151	0.110050	0.023808	-0.389137	0.366795	-0.518353	-0.125378	0.007098	0.176991	0.139127	0.292177	0.016827	-0.114772	0.140412	0.554159
-27.000000	-0.201436	0.154242	-0.572614	-0.204148	0.272738	0.366704	0.596709	-0.579035	-0.081512	0.282824	0.394166	0.337142	-0.567507	-0.189254	-0.021178	0.356669	0.520377	0.071123	-0.586092	-0.113713	0.106986	0.097371	0.049578	0.095462	-0.533250	-0.158875	-0.037190	0.146427	0.220012	0.131024	-0.136416	-0.217334	0.178326	0.586698
-26.000000	-0.317560	0.066034	-0.651187	-0.292439	0.219543	0.341221	0.437399	-0.674155	-0.083924	0.339877	0.581813	0.152855	-0.656540	-0.069703	0.056107	0.921325	0.689658	-0.170903	-0.640880	-0.062748	0.141066	0.287121	0.517129	-0.282805	-0.600158	-0.148777	-0.058358	0.161659	0.248052	0.009317	-0.221207	-0.238830	0.205823	0.509602
-25.000000	-0.445384	-0.048009	-0.717057	-0.345408	0.188733	0.290470	0.270018	-0.765931	0.001488	0.382231	0.701385	-0.035535	-0.732824	0.170544	0.144381	1.330487	0.712205	-0.370140	-0.699370	0.031954	0.183095	0.437848	0.793924	-0.565254	-0.690457	-0.118728	-0.070642	0.162829	0.221751	-0.062344	-0.208811	-0.147451	0.092050	0.296587
-24.000000	-0.500070	-0.100589	-0.701984	-0.328078	0.195956	0.301790	0.273988	-0.748159	0.075031	0.386349	0.666355	0.001358	-0.720852	0.272353	0.194247	1.263594	0.711685	-0.483367	-0.685902	0.050254	0.185466	0.469830	0.828994	-0.691136	-0.712276	-0.096021	-0.082602	0.132997	0.119132	-0.118986	-0.149170	-0.010188	-0.128088	0.091837
-23.000000	-0.437918	-0.133708	-0.616421	-0.230575	0.246108	0.333322	0.352344	-0.644500	0.066883	0.386770	0.581443	0.122809	-0.642552	0.115688	0.213889	0.913498	0.659756	-0.521745	-0.606690	-0.025270	0.166233	0.518482	0.740928	-0.761311	-0.650059	-0.094841	-0.072502	0.160408	-0.048765	-0.156993	-0.078695	0.143985	-0.196670	0.075453
-22.000000	-0.331755	-0.161975	-0.562085	-0.086904	0.330631	0.324752	0.386882	-0.579026	0.029820	0.418572	0.552867	0.187583	-0.594425	-0.111064	0.257351	0.633073	0.424904	-0.542298	-0.568398	-0.111592	0.176821	0.649027	0.583831	-0.775280	-0.615440	-0.113685	-0.018702	0.253702	-0.219843	-0.172048	0.011383	0.343319	-0.038993	0.194806
-21.000000	-0.266092	-0.127018	-0.590456	0.036388	0.442502	0.328796	0.413478	-0.593098	0.017316	0.476793	0.578999	0.259512	-0.619331	-0.231744	0.326774	0.443244	0.169370	-0.580605	-0.613436	-0.154548	0.213111	0.708114	0.336740	-0.608778	-0.656854	-0.138890	0.048637	0.314315	-0.325249	-0.194296	0.073457	0.512845	0.124111	0.260479
-20.000000	-0.249362	-0.017967	-0.623638	0.117501	0.579237	0.406284	0.432766	-0.613945	0.053404	0.546187	0.654071	0.308605	-0.646808	-0.227100	0.401425	0.379008	0.113422	-0.579966	-0.657920	-0.141954	0.242320	0.658908	-0.103074	-0.352681	-0.689319	-0.176503	0.078843	0.301950	-0.388135	-0.261508	-0.000825	0.456777	0.128311	0.216007
-19.000000	-0.206012	0.115273	-0.583782	0.210573	0.732786	0.576647	0.440417	-0.569691	0.151271	0.607081	0.737641	0.328641	-0.604191	-0.133449	0.461673	0.449933	0.304113	-0.570362	-0.645657	-0.096897	0.243026	0.588150	-0.683299	-0.287289	-0.658013	-0.251680	0.053702	0.263818	-0.448392	-0.405060	-0.239943	0.118969	0.061595	0.157662
-18.000000	-0.083758	0.273971	-0.514473	0.312569	0.850263	0.762570	0.468980	-0.495803	0.244959	0.635761	0.780802	0.447858	-0.529845	-0.019378	0.478952	0.495892	0.695427	-0.665044	-0.619100	-0.080240	0.212828	0.489539	-1.081009	-0.445248	-0.612615	-0.361691	-0.005533	0.239697	-0.424275	-0.603346	-0.536940	-0.311768	0.067897	0.196871
-17.000000	0.054774	0.497519	-0.475633	0.339063	0.868753	0.853241	0.539042	-0.459216	0.244379	0.610969	0.760655	0.656046	-0.489291	0.018568	0.448997	0.434885	1.066846	-0.846336	-0.603554	-0.130704	0.177760	0.388597	-1.135915	-0.657779	-0.593708	-0.465943	-0.055273	0.242549	-0.271581	-0.732281	-0.718125	-0.567306	0.074543	0.304609
-16.000000	0.144077	0.698895	-0.463408	0.279148	0.819886	0.865193	0.655697	-0.448886	0.149588	0.555921	0.676462	0.826358	-0.482862	-0.063863	0.396323	0.286572	1.118079	-1.055875	-0.580824	-0.240224	0.156606	0.355760	-0.944685	-0.717388	-0.587521	-0.536213	-0.069788	0.257839	-0.122496	-0.691898	-0.697889	-0.538581	-0.102520	0.324266
-15.000000	0.178731	0.749570	-0.476825	0.193371	0.768403	0.875437	0.777651	-0.453720	0.017967	0.514387	0.588777	0.944985	-0.497302	-0.234248	0.357272	0.153335	0.865810	-1.267967	-0.551774	-0.373958	0.160378	0.428118	-0.631693	-0.570150	-0.590003	-0.580475	-0.052835	0.275751	-0.089286	-0.545804	-0.555773	-0.378125	-0.394761	0.213558
-14.000000	0.144919	0.668862	-0.516932	0.115859	0.722344	0.886917	0.855301	-0.497569	-0.098933	0.492206	0.570174	1.020999	-0.535636	-0.430309	0.349460	0.144390	0.629038	-1.437822	-0.552504	-0.500587	0.200876	0.591102	-0.287740	-0.478652	-0.617114	-0.622031	-0.019581	0.345685	-0.085874	-0.424488	-0.409009	-0.223352	-0.525908	0.048206
-13.000000	0.060412	0.546502	-0.572060	0.062326	0.678068	0.865843	0.861178	-0.567275	-0.157003	0.485198	0.632397	0.974236	-0.587467	-0.587250	0.355182	0.290708	0.505241	-1.469809	-0.604660	-0.608484	0.262231	0.741259	0.004753	-0.540478	-0.670991	-0.681782	0.014229	0.476341	0.004303	-0.398805	-0.309428	-0.064915	-0.418545	-0.126908
-12.000000	-0.038610	0.411202	-0.645387	0.037673	0.655139	0.852711	0.780330	-0.649651	-0.149091	0.511016	0.792838	0.754321	-0.657506	-0.668920	0.363722	0.696678	0.419954	-1.364549	-0.698253	-0.690945	0.306779	0.806863	0.102676	-0.494698	-0.743769	-0.774400	0.039724	0.585467	0.160309	-0.494290	-0.290919	0.083586	-0.240943	-0.249366
-11.000000	-0.142360	0.266191	-0.725375	0.019139	0.658523	0.863108	0.637016	-0.740378	-0.123820	0.581433	1.044245	0.430863	-0.747055	-0.680361	0.397298	1.394893	0.359649	-1.269534	-0.807836	-0.745376	0.333400	0.868310	-0.089476	-0.278933	-0.820045	-0.878617	0.070651	0.648637	0.321934	-0.685417	-0.350146	0.189435	-0.110686	-0.255900
-10.000000	-0.198674	0.165313	-0.741517	-0.003487	0.654949	0.846728	0.536778	-0.775668	-0.113476	0.641539	1.211160	0.240035	-0.783894	-0.635884	0.437898	1.926525	0.369867	-1.233838	-0.856887	-0.767992	0.344524	0.965518	-0.442497	-0.177032	-0.843714	-0.938238	0.095456	0.684919	0.446439	-0.877455	-0.424576	0.247178	-0.100276	-0.124631
-9.000000	-0.188642	0.118808	-0.656270	-0.009481	0.636328	0.806959	0.547825	-0.712967	-0.111806	0.632713	1.162656	0.322488	-0.716234	-0.524564	0.432362	1.849520	0.496047	-1.149348	-0.805418	-0.734513	0.319999	1.027155	-0.672132	-0.320523	-0.789423	-0.930533	0.073990	0.685207	0.493293	-1.020187	-0.497599	0.234293	-0.248826	0.164986
-8.000000	-0.167309	0.065592	-0.560329	-0.018622	0.622061	0.744811	0.552748	-0.631910	-0.094676	0.590405	1.005596	0.431480	-0.619665	-0.319411	0.402821	1.415786	0.586476	-0.958625	-0.740260	-0.630428	0.292662	1.088966	-0.522018	-0.570631	-0.738648	-0.884733	0.033034	0.694995	0.490166	-1.129944	-0.590576	0.160186	-0.473189	0.546950
-7.000000	-0.141833	0.042498	-0.520301	-0.057238	0.604595	0.661662	0.499021	-0.591119	-0.057607	0.547072	0.846681	0.394564	-0.557026	-0.088851	0.377383	0.962357	0.476132	-0.768329	-0.714505	-0.507431	0.280296	1.117054	0.071625	-0.748353	-0.732905	-0.839784	0.007093	0.714405	0.526664	-1.200138	-0.673617	0.069935	-0.687433	0.874368
-6.000000	-0.081511	0.089555	-0.472797	-0.073691	0.584087	0.612705	0.503328	-0.528879	-0.039214	0.464356	0.696176	0.388008	-0.480165	-0.041382	0.314788	0.524359	0.294593	-0.700820	-0.660955	-0.485221	0.227587	0.923730	0.949593	-0.651621	-0.707816	-0.821164	-0.045006	0.635497	0.623160	-1.243962	-0.736764	-0.060553	-0.862580	1.063766
-5.000000	0.011019	0.144525	-0.383361	-0.035464	0.578989	0.620197	0.573358	-0.422284	-0.039447	0.345644	0.590058	0.504080	-0.379511	-0.230282	0.204133	0.198099	0.396843	-0.793338	-0.564853	-0.605873	0.122666	0.537521	1.841831	-0.242199	-0.648148	-0.845507	-0.148575	0.435520	0.686687	-1.325279	-0.846967	-0.280082	-1.019450	1.080111
-4.000000	0.139529	0.224469	-0.295388	0.027064	0.601954	0.664830	0.615489	-0.315907	-0.013423	0.277436	0.574487	0.609920	-0.301101	-0.424699	0.108268	0.104210	0.887861	-0.996406	-0.480561	-0.744516	0.026507	0.191001	2.347464	0.189591	-0.580948	-0.905226	-0.261235	0.197331	0.578861	-1.465470	-1.026771	-0.554621	-1.141219	0.899057
-3.000000	0.329324	0.361465	-0.205228	0.102103	0.655276	0.696796	0.577260	-0.223493	0.037365	0.299237	0.593538	0.595079	-0.231029	-0.443578	0.096150	0.149915	1.414215	-1.165178	-0.397186	-0.773925	-0.017693	0.032161	2.132025	0.350217	-0.500405	-0.939392	-0.328684	0.018736	0.300613	-1.574031	-1.172279	-0.769372	-1.103237	0.589430
-2.000000	0.547333	0.488972	-0.117830	0.164964	0.709673	0.653698	0.508122	-0.161955	0.084418	0.349242	0.513630	0.548974	-0.162045	-0.295394	0.151192	0.094963	1.711667	-1.260388	-0.306522	-0.682895	-0.012791	0.038496	1.384676	0.218050	-0.412406	-0.896081	-0.320914	-0.020099	0.068578	-1.561944	-1.191451	-0.833934	-0.891555	0.266246
-1.000000	0.703467	0.541542	-0.081054	0.177701	0.735898	0.559075	0.504913	-0.139609	0.142227	0.387905	0.364825	0.603074	-0.120651	-0.044784	0.218709	-0.055655	1.779707	-1.444596	-0.245626	-0.527070	0.024731	0.089609	0.584552	-0.028413	-0.335551	-0.797450	-0.251302	0.040223	-0.003018	-1.471306	-1.126874	-0.785202	-0.666117	0.017669
0.000000	0.758071	0.549592	-0.067320	0.164188	0.761062	0.488872	0.557060	-0.124248	0.215476	0.435139	0.311181	0.664682	-0.093816	0.198809	0.290231	-0.029540	1.502190	-1.702117	-0.203781	-0.381513	0.086169	0.113628	-0.027528	-0.174216	-0.265559	-0.690866	-0.181801	0.086652	-0.010253	-1.389937	-1.081320	-0.759186	-0.553820	-0.100402
1.000000	0.750846	0.628461	-0.017011	0.174415	0.818528	0.506546	0.624740	-0.070399	0.257848	0.489625	0.373926	0.613048	-0.034911	0.237770	0.354339	0.191743	0.836983	-1.765703	-0.131403	-0.327007	0.147611	0.108084	-0.417701	-0.139325	-0.163328	-0.628833	-0.163858	0.075633	-0.011214	-1.345494	-1.108353	-0.865606	-0.558920	-0.099009
2.000000	0.706902	0.795645	0.060488	0.213138	0.867181	0.608258	0.703400	0.027471	0.226626	0.512961	0.449425	0.516110	0.058890	-0.000613	0.373144	0.335895	0.147000	-1.509361	-0.032144	-0.416078	0.165022	0.042672	-0.510607	-0.044927	-0.036319	-0.642818	-0.203737	0.023578	0.039126	-1.291898	-1.156311	-1.028118	-0.542556	0.014967
3.000000	0.626107	0.929127	0.123165	0.227358	0.851160	0.702402	0.764454	0.112780	0.150103	0.474255	0.414864	0.452652	0.140109	-0.329349	0.322120	0.163122	-0.214822	-1.066990	0.051881	-0.579433	0.134342	-0.127262	-0.212927	-0.032695	0.061648	-0.686234	-0.277012	-0.040816	0.178371	-1.169535	-1.107069	-1.035875	-0.420058	0.228128
4.000000	0.532149	0.936345	0.168995	0.191334	0.787826	0.757418	0.807767	0.168330	0.100117	0.398246	0.238048	0.420941	0.197539	-0.551042	0.227414	-0.270179	-0.306999	-0.672619	0.119515	-0.682349	0.090864	-0.350429	0.306729	-0.081174	0.131365	-0.697625	-0.346944	-0.123011	0.312646	-1.011614	-0.939228	-0.860376	-0.258603	0.411091
5.000000	0.434265	0.839037	0.201083	0.143047	0.713655	0.788889	0.828862	0.206979	0.086830	0.318571	0.050278	0.410853	0.227924	-0.634755	0.141582	-0.546039	-0.328360	-0.477461	0.164414	-0.710480	0.046425	-0.483613	0.742414	-0.038484	0.167925	-0.677412	-0.403836	-0.217367	0.334744	-0.904113	-0.763930	-0.661924	-0.045244	0.474544
6.000000	0.331243	0.684647	0.195968	0.119509	0.635207	0.775643	0.770031	0.201435	0.077027	0.243546	0.015317	0.364909	0.216891	-0.622083	0.107201	-0.316787	-0.357776	-0.471729	0.143970	-0.716618	-0.011983	-0.426873	0.986658	0.173946	0.134067	-0.667192	-0.465381	-0.265855	0.253060	-0.894382	-0.676400	-0.537213	0.258481	0.470748
7.000000	0.250343	0.483870	0.149071	0.121219	0.559708	0.740545	0.651113	0.143922	0.065720	0.201314	0.171812	0.219179	0.163288	-0.503784	0.129180	0.352008	-0.306793	-0.568213	0.054341	-0.669448	-0.079953	-0.202406	1.057890	0.411549	0.038388	-0.666845	-0.543961	-0.270032	0.065874	-0.992497	-0.700367	-0.526036	0.526063	0.442797
8.000000	0.226034	0.299353	0.123923	0.124879	0.494455	0.704233	0.585742	0.109596	0.081226	0.184181	0.322949	0.125397	0.114490	-0.271624	0.140029	0.947823	-0.036534	-0.647519	-0.008343	-0.518431	-0.151721	0.011837	0.976609	0.511990	-0.021842	-0.623786	-0.651358	-0.307559	-0.190862	-1.164243	-0.826175	-0.664753	0.603048	0.430868
9.000000	0.277897	0.217295	0.215981	0.168049	0.462066	0.672345	0.631175	0.201473	0.154009	0.154426	0.308173	0.262592	0.180991	-0.028798	0.100623	1.012581	0.358878	-0.603494	0.085101	-0.331876	-0.235901	0.051784	0.678698	0.485083	0.065744	-0.539785	-0.789411	-0.418996	-0.440375	-1.351036	-1.045069	-0.960224	0.531490	0.460304
10.000000	0.417236	0.181767	0.409599	0.293810	0.504259	0.712631	0.757449	0.403305	0.269755	0.143133	0.272298	0.534092	0.367194	0.068779	0.068071	0.736042	0.579096	-0.432777	0.297443	-0.262353	-0.309308	0.005397	0.061444	0.412827	0.259114	-0.486029	-0.916843	-0.545647	-0.668655	-1.500528	-1.296095	-1.336507	0.498489	0.453885
11.000000	0.621843	0.069915	0.565591	0.434606	0.605125	0.818776	0.877001	0.577648	0.383719	0.180945	0.335985	0.728263	0.537049	0.009105	0.076100	0.538485	0.467257	-0.159525	0.459708	-0.344838	-0.347066	0.043902	-0.706210	0.351282	0.406031	-0.504120	-0.989637	-0.578558	-0.839706	-1.559142	-1.447690	-1.611845	0.584462	0.374774
12.000000	0.824375	-0.089973	0.586935	0.511177	0.704675	0.889975	0.931934	0.619281	0.455688	0.232167	0.425714	0.779983	0.589364	-0.091220	0.084716	0.496199	0.278530	0.153458	0.489028	-0.464912	-0.375857	0.091884	-1.199067	0.365481	0.426404	-0.571860	-1.024126	-0.544631	-0.905698	-1.521131	-1.462417	-1.686077	0.679426	0.300349
13.000000	0.959279	-0.222111	0.493261	0.520101	0.776771	0.873190	0.925208	0.532832	0.465407	0.259830	0.493838	0.749718	0.523338	-0.154752	0.067787	0.545686	0.384155	0.338534	0.396826	-0.541622	-0.429548	-0.059607	-1.087432	0.477298	0.331014	-0.644020	-1.067942	-0.570496	-0.845112	-1.441608	-1.427668	-1.622156	0.677669	0.305693
14.000000	1.006419	-0.291782	0.348244	0.506969	0.813926	0.772836	0.857259	0.382232	0.462330	0.259929	0.541464	0.659119	0.388473	-0.136503	0.048659	0.698477	0.738267	0.303808	0.234263	-0.557997	-0.492360	-0.363194	-0.437320	0.536157	0.165329	-0.700393	-1.123728	-0.658513	-0.689799	-1.385308	-1.388694	-1.498573	0.596132	0.388775
15.000000	0.988608	-0.216996	0.232261	0.524516	0.826548	0.654269	0.801787	0.249610	0.513125	0.248908	0.543829	0.570730	0.252823	-0.029398	0.043545	0.827162	0.975051	0.180416	0.085342	-0.512965	-0.530129	-0.610394	0.285157	0.443963	-0.005481	-0.749628	-1.161994	-0.745209	-0.552447	-1.388769	-1.355460	-1.388782	0.447702	0.480894
16.000000	0.976826	0.024828	0.236102	0.603033	0.856027	0.617059	0.836521	0.232671	0.616168	0.251147	0.488494	0.549199	0.213301	0.111582	0.035409	0.740492	0.853087	0.103718	0.040646	-0.415037	-0.547087	-0.748413	0.544184	0.349488	-0.081165	-0.775838	-1.170740	-0.830297	-0.521649	-1.432218	-1.374152	-1.383386	0.245135	0.523698
17.000000	1.020805	0.383635	0.364752	0.718334	0.886009	0.636082	0.971200	0.340410	0.718776	0.261324	0.352235	0.618447	0.303215	0.222681	-0.001533	0.408608	0.525732	0.048537	0.127859	-0.290197	-0.562894	-0.806854	0.171299	0.358065	-0.002452	-0.739639	-1.163642	-0.915126	-0.571931	-1.454861	-1.442944	-1.485933	0.079004	0.526679
18.000000	1.075177	0.784654	0.507918	0.794729	0.845222	0.589630	1.188416	0.472923	0.764553	0.231212	0.104640	0.790083	0.436083	0.277086	-0.079920	-0.152228	0.329950	0.037386	0.273670	-0.173695	-0.580223	-0.795289	-0.541460	0.420773	0.152089	-0.632069	-1.153984	-0.933637	-0.578530	-1.407268	-1.483219	-1.564671	-0.022312	0.554837
19.000000	1.065397	1.060800	0.570767	0.772597	0.730561	0.477553	1.387778	0.547062	0.719795	0.149637	-0.179012	0.949920	0.515757	0.280086	-0.196711	-0.794607	0.365818	0.125236	0.373770	-0.084153	-0.593919	-0.767746	-1.173035	0.546296	0.250213	-0.501253	-1.127771	-0.869552	-0.452597	-1.295509	-1.412542	-1.440637	-0.149284	0.651701
20.000000	0.947345	1.078736	0.552891	0.642129	0.578882	0.374347	1.463343	0.541671	0.584330	0.036749	-0.386262	1.014729	0.520169	0.235410	-0.337739	-1.260141	0.513588	0.226827	0.390936	-0.036610	-0.614654	-0.825149	-1.356745	0.773452	0.256756	-0.401407	-1.091319	-0.818716	-0.225958	-1.135609	-1.199206	-1.042780	-0.352316	0.799996
21.000000	0.749015	0.894489	0.508408	0.451546	0.394268	0.278969	1.415372	0.508104	0.416471	-0.100702	-0.500694	1.013066	0.503299	0.157560	-0.463648	-1.484692	0.565062	0.237307	0.374299	-0.025593	-0.641058	-0.989961	-0.971555	1.033689	0.249843	-0.325250	-1.058786	-0.819710	0.002850	-0.943088	-0.910061	-0.518815	-0.574927	0.957596
22.000000	0.518654	0.641640	0.481184	0.268494	0.196760	0.196330	1.329068	0.502307	0.260907	-0.232524	-0.540687	0.974789	0.514320	0.054622	-0.533825	-1.501275	0.434773	0.153504	0.379335	-0.030887	-0.642505	-1.117076	-0.267528	1.233150	0.285079	-0.252654	-1.008888	-0.820141	0.136505	-0.787321	-0.683420	-0.142689	-0.766243	1.045341
23.000000	0.281230	0.368986	0.488226	0.121753	0.018551	0.147034	1.214306	0.526570	0.124731	-0.327176	-0.529140	0.853965	0.542748	-0.053523	-0.533730	-1.325230	0.141216	0.079195	0.423579	-0.035426	-0.609394	-1.057935	0.399429	1.416557	0.344788	-0.197949	-0.932545	-0.766745	0.190034	-0.721806	-0.564803	-0.027491	-0.875529	1.031607
24.000000	0.082782	0.081372	0.533828	0.016006	-0.142766	0.083671	1.018672	0.581818	0.020672	-0.383377	-0.477945	0.604470	0.566659	-0.134624	-0.486033	-0.996802	-0.235990	0.152843	0.489747	-0.028094	-0.552488	-0.877634	0.794154	1.588529	0.414351	-0.162321	-0.841666	-0.670659	0.245501	-0.713734	-0.500307	-0.070635	-0.825569	1.060524
25.000000	-0.056447	-0.188254	0.568101	-0.055688	-0.282859	-0.018783	0.817274	0.627550	-0.073697	-0.437844	-0.378948	0.365333	0.568474	-0.198855	-0.452854	-0.583997	-0.265627	0.330051	0.530549	-0.021748	-0.500164	-0.754906	0.929349	1.569268	0.470845	-0.132447	-0.744749	-0.601839	0.288842	-0.703494	-0.460657	-0.151777	-0.663156	1.213366
26.000000	-0.159791	-0.405870	0.516724	-0.130197	-0.392633	-0.134076	0.698883	0.578693	-0.154320	-0.530673	-0.307500	0.279403	0.513020	-0.255412	-0.459477	-0.276761	0.260517	0.441311	0.497444	-0.028884	-0.476553	-0.721071	1.019976	1.350926	0.468212	-0.098205	-0.649635	-0.553146	0.276308	-0.629545	-0.387489	-0.150180	-0.554825	1.371071
27.000000	-0.206045	-0.530749	0.396186	-0.211191	-0.481574	-0.242222	0.633738	0.442007	-0.177089	-0.639280	-0.374052	0.302499	0.400046	-0.281260	-0.480081	-0.278109	0.901753	0.472630	0.402293	-0.035572	-0.459160	-0.690873	1.214268	1.025081	0.412211	-0.045823	-0.565102	-0.462556	0.220878	-0.443046	-0.222949	0.003146	-0.532761	1.456462
28.000000	-0.140636	-0.535088	0.282154	-0.256328	-0.525596	-0.315447	0.577945	0.301059	-0.150589	-0.699444	-0.518068	0.364355	0.280850	-0.268063	-0.492952	-0.470733	1.304528	0.455525	0.290531	-0.030604	-0.421959	-0.624513	1.455788	0.528608	0.329516	0.005277	-0.492309	-0.322268	0.165596	-0.197601	-0.055082	0.175548	-0.463399	1.443002
29.000000	0.017478	-0.477831	0.186296	-0.256011	-0.492093	-0.315421	0.527492	0.179825	-0.117134	-0.675884	-0.558523	0.407288	0.163527	-0.260987	-0.479940	-0.505024	1.435439	0.351337	0.153392	-0.035401	-0.364395	-0.519013	1.579773	-0.007367	0.205937	0.015477	-0.413507	-0.172743	0.160913	0.008630	0.019553	0.238918	-0.312665	1.303916
30.000000	0.191300	-0.448153	0.109228	-0.227768	-0.407318	-0.256496	0.448257	0.087799	-0.101442	-0.592161	-0.457419	0.308134	0.057137	-0.274698	-0.429851	-0.265919	1.047961	0.205060	0.021750	-0.053383	-0.296664	-0.383791	1.499495	-0.266277	0.082879	-0.001201	-0.312749	-0.037501	0.243264	0.170687	0.063811	0.276029	-0.151443	1.087208
31.000000	0.347775	-0.436215	0.115274	-0.171371	-0.300380	-0.194082	0.342289	0.083357	-0.071631	-0.488861	-0.330593	0.061288	0.040493	-0.228796	-0.344250	0.024435	-0.031599	0.119111	-0.003415	-0.020561	-0.217086	-0.281801	1.180779	-0.204558	0.057366	0.017256	-0.202703	0.040199	0.332613	0.323506	0.133757	0.308405	0.017873	0.867382
32.000000	0.488067	-0.411996	0.214590	-0.072894	-0.164208	-0.137310	0.291353	0.167205	0.003458	-0.400867	-0.267073	-0.155392	0.124854	-0.066355	-0.238063	0.091882	-1.249972	0.109104	0.082747	0.097670	-0.126564	-0.284368	0.683861	-0.040886	0.133314	0.101586	-0.113401	-0.021890	0.266916	0.455699	0.185865	0.253068	0.233271	0.748465
33.000000	0.592845	-0.405608	0.288659	0.030079	-0.014567	-0.092018	0.277138	0.233922	0.084684	-0.352015	-0.253490	-0.275507	0.201167	0.181090	-0.147450	-0.044575	-2.008226	0.114703	0.171115	0.277057	-0.046101	-0.370176	0.307093	0.049938	0.204372	0.229739	-0.045380	-0.186464	0.061722	0.545349	0.213157	0.177744	0.508563	0.824839
34.000000	0.632352	-0.414825	0.255300	0.074545	0.097896	-0.094781	0.212848	0.198919	0.115753	-0.334727	-0.263042	-0.360028	0.193517	0.429279	-0.096088	-0.180604	-2.229517	0.066277	0.184677	0.485634	0.019102	-0.430276	0.279659	-0.007022	0.185435	0.356364	0.040743	-0.310203	-0.122192	0.598637	0.252932	0.163436	0.847247	1.035743
35.000000	0.591297	-0.402052	0.176379	0.038207	0.132879	-0.131084	0.131340	0.105155	0.051375	-0.335734	-0.294897	-0.412027	0.137085	0.520951	-0.080378	-0.228991	-2.007529	-0.044483	0.146676	0.617858	0.065072	-0.395607	0.509778	-0.171770	0.113999	0.432030	0.154224	-0.328235	-0.202474	0.641489	0.310169	0.159299	1.227137	1.271141
36.000000	0.494702	-0.371878	0.133623	-0.054131	0.095356	-0.169917	0.079483	0.053177	-0.097665	-0.356943	-0.284530	-0.460905	0.107279	0.345094	-0.086666	-0.103159	-1.604720	-0.153572	0.122932	0.563047	0.084409	-0.306570	0.804826	-0.267892	0.079963	0.430715	0.251958	-0.280618	-0.201823	0.693929	0.355837	0.104658	1.555122	1.484736
37.000000	0.373319	-0.352377	0.144237	-0.162590	0.019779	-0.232407	0.008280	0.077330	-0.242890	-0.390542	-0.159956	-0.567408	0.136206	-0.020044	-0.100873	0.269548	-1.247889	-0.232048	0.143970	0.341933	0.097421	-0.190266	1.054498	-0.191894	0.098162	0.370362	0.315500	-0.209042	-0.195255	0.729529	0.344785	-0.029377	1.741500	1.607704
38.000000	0.249754	-0.320510	0.181734	-0.285707	-0.075443	-0.321426	-0.084212	0.141117	-0.314982	-0.420665	0.024639	-0.694587	0.192909	-0.366231	-0.115019	0.766026	-0.874516	-0.274444	0.203536	0.090336	0.109996	-0.023222	1.161633	-0.024161	0.144145	0.309364	0.369686	-0.148429	-0.272911	0.698671	0.256730	-0.283813	1.801080	1.604277
39.000000	0.172220	-0.259806	0.234364	-0.404839	-0.189578	-0.386865	-0.124042	0.218779	-0.323439	-0.464443	0.102738	-0.700689	0.255547	-0.530062	-0.142017	0.995853	-0.430195	-0.224112	0.290738	-0.044827	0.096794	0.150800	1.081583	0.073545	0.219485	0.301617	0.423489	-0.129016	-0.449924	0.617075	0.152185	-0.582954	1.735237	1.494116
40.000000	0.163314	-0.198209	0.303250	-0.450481	-0.292077	-0.377636	-0.056883	0.301236	-0.310058	-0.528843	-0.014549	-0.513468	0.325357	-0.555825	-0.202296	0.647971	-0.016417	-0.059047	0.357135	-0.060115	0.066574	0.245642	0.893551	0.027901	0.285392	0.345167	0.463064	-0.120579	-0.629089	0.549766	0.122888	-0.712637	1.478985	1.246697
41.000000	0.190265	-0.141362	0.322493	-0.407192	-0.338972	-0.288392	0.105059	0.329482	-0.279288	-0.567313	-0.199090	-0.240409	0.349957	-0.515955	-0.266410	0.009275	0.229658	0.119619	0.340178	-0.023751	0.053937	0.232605	0.635040	-0.063668	0.275943	0.403525	0.476134	-0.097167	-0.719617	0.519674	0.178636	-0.622891	1.074990	0.885066
42.000000	0.177582	-0.100988	0.258631	-0.350698	-0.333066	-0.163220	0.239101	0.267301	-0.210343	-0.551593	-0.304363	-0.077748	0.301082	-0.362381	-0.288958	-0.425066	0.160033	0.229624	0.267592	0.093240	0.070344	0.168750	0.347598	-0.119556	0.219972	0.478941	0.479155	-0.064056	-0.705968	0.495747	0.250611	-0.447299	0.740662	0.575248
43.000000	0.054077	-0.118362	0.175414	-0.338135	-0.287434	-0.076611	0.232686	0.181986	-0.091749	-0.493644	-0.333813	-0.119249	0.237838	-0.124157	-0.255374	-0.564288	-0.222873	0.278701	0.215579	0.288622	0.106039	0.109960	0.190584	-0.078013	0.196797	0.591600	0.490687	-0.034668	-0.638205	0.455212	0.275871	-0.305076	0.621649	0.480039
44.000000	-0.129196	-0.200558	0.103915	-0.350157	-0.204932	-0.040657	0.131712	0.135024	0.045811	-0.408215	-0.306659	-0.225988	0.192406	0.058379	-0.180359	-0.523961	-0.491846	0.305026	0.192013	0.418135	0.132691	0.007037	0.246818	0.075009	0.201213	0.678408	0.475454	-0.064983	-0.607815	0.394487	0.228196	-0.286406	0.661676	0.622511
45.000000	-0.265821	-0.307187	0.056598	-0.339576	-0.096323	0.000020	0.015136	0.116557	0.154987	-0.297762	-0.222242	-0.276105	0.158174	0.160153	-0.095851	-0.356756	-0.244463	0.296809	0.158586	0.415838	0.132021	-0.145747	0.412186	0.125616	0.178669	0.668048	0.417960	-0.159623	-0.662855	0.307846	0.109184	-0.414077	0.722373	0.818725
46.000000	-0.312861	-0.399040	0.046240	-0.303308	0.032568	0.070495	-0.078974	0.098192	0.244193	-0.155899	-0.142396	-0.282202	0.131768	0.324199	-0.020699	-0.204397	0.397891	0.206275	0.126569	0.436496	0.129639	-0.270316	0.339877	-0.037521	0.144059	0.613404	0.349043	-0.264247	-0.804359	0.226649	-0.028632	-0.612710	0.675491	0.880452
47.000000	-0.257245	-0.420825	0.027791	-0.282241	0.173329	0.174018	-0.091492	0.061364	0.340780	-0.001779	-0.099214	-0.208246	0.095646	0.602225	0.044281	-0.172157	1.077919	0.129240	0.122169	0.560441	0.163817	-0.329809	-0.371653	-0.229383	0.135455	0.587561	0.287652	-0.373546	-1.027817	0.211268	-0.119755	-0.809792	0.569992	0.843026
48.000000	-0.093285	-0.292724	0.024502	-0.257908	0.321069	0.269242	-0.010463	0.053281	0.395828	0.114591	-0.030886	-0.094195	0.078507	0.732035	0.100937	-0.072577	1.443751	0.180584	0.147304	0.608212	0.222261	-0.253863	-1.560576	-0.340644	0.152584	0.544324	0.245449	-0.438860	-1.253527	0.234232	-0.177401	-0.991786	0.554064	0.753646
49.000000	0.160991	-0.017427	0.138738	-0.177235	0.468892	0.289791	0.075689	0.168890	0.339425	0.173814	0.094180	-0.124596	0.165083	0.452549	0.131291	0.271788	1.239014	0.317209	0.236086	0.422277	0.250561	-0.020247	-2.607506	-0.398545	0.233071	0.409000	0.213138	-0.401873	-1.373586	0.221431	-0.237362	-1.114531	0.627116	0.583894
50.000000	0.406562	0.251821	0.328211	-0.087826	0.567083	0.245755	0.104561	0.360280	0.192747	0.201553	0.249636	-0.325855	0.327282	-0.054640	0.119086	0.770768	0.647406	0.441369	0.374043	0.091846	0.227163	0.196612	-3.136880	-0.358962	0.381455	0.210109	0.166296	-0.353154	-1.348563	0.176988	-0.279983	-1.092767	0.699816	0.380641
51.000000	0.540515	0.371475	0.462835	-0.041237	0.582958	0.211831	0.119224	0.490456	0.020431	0.222092	0.404202	-0.518011	0.444086	-0.460275	0.088986	1.222335	0.088810	0.519047	0.486353	-0.189547	0.184976	0.267849	-3.237774	-0.266726	0.504964	0.040280	0.114699	-0.369622	-1.211051	0.119142	-0.283847	-0.929457	0.742339	0.219548
52.000000	0.585726	0.326729	0.532720	-0.004209	0.564651	0.224244	0.144107	0.551811	-0.103214	0.247792	0.494592	-0.602563	0.503806	-0.654250	0.083397	1.459419	-0.357285	0.543830	0.566406	-0.330454	0.168334	0.288726	-3.241894	-0.168081	0.572880	-0.058579	0.083250	-0.390164	-1.052230	0.036786	-0.267309	-0.748973	0.736243	0.102693
53.000000	0.621647	0.168365	0.612936	0.047602	0.544901	0.245478	0.144980	0.622807	-0.130349	0.268917	0.491070	-0.631414	0.579019	-0.653349	0.114090	1.464782	-0.750999	0.518415	0.647098	-0.356085	0.179939	0.379466	-3.284847	-0.042589	0.634989	-0.114949	0.061931	-0.360509	-0.986607	-0.086759	-0.279941	-0.670036	0.707563	0.014396
54.000000	0.661787	0.000913	0.706655	0.107828	0.502749	0.250493	0.121215	0.712530	-0.088742	0.269964	0.443852	-0.622136	0.671400	-0.539399	0.158362	1.346225	-1.007628	0.503662	0.713377	-0.337087	0.195071	0.544879	-3.204594	-0.052009	0.692487	-0.157978	0.033404	-0.293478	-1.072416	-0.232803	-0.345527	-0.683054	0.780405	0.060558
55.000000	0.635381	-0.069948	0.742711	0.140102	0.444685	0.268516	0.116285	0.745352	-0.042319	0.255163	0.389319	-0.534971	0.710944	-0.441153	0.183628	1.164737	-0.991847	0.505890	0.723553	-0.332979	0.197792	0.712121	-2.830452	-0.324292	0.703956	-0.203158	0.000695	-0.209054	-1.174974	-0.347584	-0.427360	-0.710741	0.932570	0.313364
56.000000	0.510396	-0.031136	0.725134	0.118867	0.393054	0.301888	0.142801	0.711862	-0.018318	0.237348	0.322784	-0.438349	0.699215	-0.425981	0.172776	0.941989	-0.724871	0.467241	0.695388	-0.361403	0.168831	0.796927	-2.224491	-0.776423	0.679055	-0.256217	-0.028752	-0.128582	-1.115919	-0.402606	-0.474769	-0.677738	0.987905	0.603747
57.000000	0.369596	0.088582	0.725213	0.083646	0.353314	0.366922	0.251579	0.692889	0.006162	0.218632	0.226704	-0.335155	0.706223	-0.462405	0.131089	0.640122	-0.520517	0.385798	0.700499	-0.391157	0.098109	0.692041	-1.699248	-1.165241	0.681092	-0.302579	-0.064520	-0.129541	-0.926664	-0.413900	-0.469909	-0.537376	0.853165	0.750089
58.000000	0.297607	0.213897	0.762706	0.065532	0.354241	0.521869	0.473542	0.717727	0.044911	0.211842	0.128867	-0.100044	0.738087	-0.499259	0.088814	0.235338	-0.460784	0.267167	0.740694	-0.392387	0.010820	0.398706	-1.547933	-1.319165	0.712748	-0.346685	-0.118156	-0.223438	-0.739179	-0.428055	-0.445551	-0.364479	0.618448	0.748849
59.000000	0.319917	0.236290	0.805464	0.056856	0.409430	0.711753	0.657635	0.760692	0.099069	0.239678	0.105353	0.159615	0.770752	-0.513615	0.074415	-0.078055	-0.321425	0.164760	0.769273	-0.386835	-0.051831	0.135409	-1.847160	-1.277427	0.725957	-0.411932	-0.175406	-0.298192	-0.596479	-0.481439	-0.466664	-0.295859	0.500279	0.693332
60.000000	0.430404	0.178638	0.840318	0.088233	0.479094	0.817255	0.719356	0.813124	0.194905	0.266250	0.132821	0.262075	0.813605	-0.463921	0.076655	-0.193238	-0.144422	0.189452	0.791214	-0.389876	-0.096189	-0.012900	-2.381169	-1.074339	0.726296	-0.490658	-0.233887	-0.346451	-0.469522	-0.587078	-0.562317	-0.373730	0.622587	0.694191
61.000000	0.568620	0.140454	0.841665	0.177328	0.529866	0.787154	0.722312	0.829362	0.348131	0.249733	0.099223	0.214404	0.827924	-0.304701	0.069246	-0.256240	0.026952	0.297888	0.783063	-0.378571	-0.158171	-0.186507	-2.607120	-0.776968	0.709818	-0.549633	-0.310708	-0.440151	-0.316985	-0.724351	-0.692448	-0.520587	0.901322	0.757882
62.000000	0.663539	0.135740	0.763250	0.280062	0.548129	0.640347	0.680494	0.753555	0.506857	0.199687	-0.044915	0.076546	0.753508	-0.081574	0.043574	-0.364216	0.244509	0.333499	0.694897	-0.343945	-0.247268	-0.452320	-1.992398	-0.500318	0.634831	-0.574736	-0.395824	-0.568335	-0.100915	-0.860609	-0.811581	-0.614072	1.131023	0.751605
63.000000	0.688517	0.095053	0.642687	0.356146	0.535592	0.489014	0.583192	0.642191	0.595440	0.143476	-0.242718	-0.081011	0.636785	0.111453	0.005412	-0.498255	0.301533	0.223420	0.571190	-0.301958	-0.344408	-0.735540	-0.608940	-0.281939	0.525827	-0.585117	-0.475386	-0.698891	0.109483	-0.952605	-0.875886	-0.573759	1.163472	0.566986
64.000000	0.648713	-0.011963	0.543231	0.390570	0.528934	0.429134	0.429299	0.552509	0.604816	0.125734	-0.358362	-0.249777	0.541711	0.264922	-0.027700	-0.556330	0.039748	0.007604	0.470717	-0.249858	-0.408391	-0.905845	0.969661	-0.138936	0.431599	-0.595768	-0.548456	-0.818896	0.171183	-0.963222	-0.878956	-0.437623	1.012381	0.267849
65.000000	0.607859	-0.130086	0.474292	0.415276	0.564242	0.406701	0.234084	0.476491	0.597321	0.167205	-0.354833	-0.456637	0.465704	0.429132	-0.033209	-0.502177	-0.402755	-0.198633	0.395255	-0.165188	-0.417230	-0.915572	2.251687	-0.061626	0.353067	-0.604771	-0.601323	-0.898921	0.051687	-0.937673	-0.881072	-0.328297	0.823343	0.043752
66.000000	0.629805	-0.179285	0.460523	0.480792	0.622746	0.354008	0.096612	0.447930	0.610565	0.227607	-0.359076	-0.601689	0.435200	0.517889	-0.025211	-0.526158	-0.744794	-0.315262	0.361788	-0.099943	-0.390163	-0.825262	2.923774	0.058611	0.314181	-0.626862	-0.640656	-0.889061	-0.132375	-0.925933	-0.922084	-0.338217	0.727368	-0.008928
67.000000	0.721616	-0.055722	0.523011	0.575910	0.658269	0.283034	0.124124	0.511726	0.640569	0.247012	-0.452483	-0.589379	0.483792	0.435940	-0.036378	-0.759713	-0.755663	-0.299769	0.384422	-0.124820	-0.366496	-0.740483	2.837155	0.232971	0.351827	-0.672771	-0.687310	-0.808948	-0.231968	-0.932920	-1.007866	-0.488687	0.726533	0.012842
68.000000	0.858275	0.229144	0.596531	0.623260	0.653539	0.219393	0.284205	0.594746	0.659575	0.208769	-0.561426	-0.475620	0.550075	0.269203	-0.060451	-0.987483	-0.455231	-0.115267	0.408539	-0.209529	-0.366784	-0.664262	2.115301	0.331385	0.407262	-0.727736	-0.732312	-0.688761	-0.175691	-0.979111	-1.111684	-0.697853	0.718908	-0.018657
69.000000	0.990379	0.486275	0.598125	0.567822	0.612858	0.184041	0.451118	0.583887	0.611075	0.140111	-0.578342	-0.360710	0.541516	0.088172	-0.084894	-0.920511	-0.098207	0.128282	0.387123	-0.302608	-0.374468	-0.464786	1.059802	0.389487	0.398778	-0.768349	-0.750138	-0.480585	0.020243	-1.067474	-1.171965	-0.816057	0.614574	-0.086733
70.000000	1.101749	0.639989	0.525147	0.450682	0.567980	0.185824	0.577664	0.491430	0.513733	0.089799	-0.467804	-0.243104	0.460347	-0.051089	-0.102983	-0.526943	0.143477	0.258071	0.335456	-0.353975	-0.367350	-0.222831	-0.041552	0.470523	0.327719	-0.770720	-0.739003	-0.278029	0.209300	-1.167550	-1.188011	-0.827945	0.419867	-0.111736
71.000000	1.144133	0.740989	0.427736	0.339793	0.541723	0.235791	0.683540	0.384245	0.439058	0.095943	-0.220381	-0.112273	0.369956	-0.083606	-0.092306	0.100107	0.324321	0.245452	0.270830	-0.325900	-0.336830	-0.093568	-0.926987	0.512534	0.242732	-0.729710	-0.728617	-0.231899	0.202973	-1.274752	-1.257517	-0.887511	0.137933	-0.085937
72.000000	1.048547	0.760997	0.377579	0.266803	0.513168	0.327799	0.756899	0.329658	0.399463	0.121727	0.083125	-0.023448	0.333914	-0.045712	-0.069960	0.758050	0.514005	0.146779	0.242912	-0.242727	-0.307891	-0.056132	-1.328091	0.496625	0.221113	-0.654912	-0.753175	-0.310038	0.006149	-1.409998	-1.421412	-1.081814	-0.281694	-0.055639
73.000000	0.860588	0.663723	0.433926	0.263048	0.466571	0.425405	0.832943	0.386552	0.390019	0.106259	0.238426	0.113867	0.400604	0.005218	-0.097679	1.021271	0.757728	-0.015996	0.313996	-0.146144	-0.339002	-0.138703	-1.118812	0.433595	0.309098	-0.578317	-0.829718	-0.423366	-0.177415	-1.583662	-1.613072	-1.360951	-0.805672	-0.076823
74.000000	0.668459	0.505533	0.543305	0.322499	0.408069	0.505947	0.975884	0.495814	0.409394	0.046656	0.181939	0.395944	0.512439	0.027851	-0.179982	0.714929	1.065979	-0.208993	0.423415	-0.093180	-0.439765	-0.301740	-0.464880	0.361631	0.431411	-0.547578	-0.939109	-0.479723	-0.179075	-1.764949	-1.774835	-1.623288	-1.251731	-0.128334
75.000000	0.565116	0.442483	0.612495	0.380051	0.357284	0.504447	1.127453	0.565544	0.434556	-0.016259	0.026571	0.646798	0.580566	0.012253	-0.265404	0.143532	1.210684	-0.302554	0.479921	-0.099994	-0.541900	-0.405922	0.202482	0.375393	0.494969	-0.546578	-1.031709	-0.443560	-0.035685	-1.852490	-1.858728	-1.761814	-1.417170	-0.126783
76.000000	0.594239	0.554067	0.638032	0.414010	0.337377	0.334917	1.174138	0.602849	0.457926	-0.041868	-0.147721	0.674273	0.609065	0.040959	-0.295699	-0.376380	0.920129	-0.229938	0.508471	-0.074603	-0.568656	-0.415956	0.402211	0.527778	0.521778	-0.495791	-1.055800	-0.378108	0.111236	-1.783198	-1.821813	-1.737927	-1.240135	-0.073631
77.000000	0.660396	0.704830	0.611972	0.438606	0.358438	0.099500	1.110119	0.600163	0.502619	-0.013084	-0.266123	0.527356	0.597389	0.207245	-0.224391	-0.685091	0.319212	-0.117080	0.506666	0.071562	-0.497087	-0.365788	0.028117	0.709423	0.518128	-0.359216	-0.994519	-0.331524	0.190400	-1.624598	-1.695417	-1.588222	-0.844096	-0.069930
78.000000	0.649029	0.752510	0.483864	0.426238	0.416383	0.024786	1.003029	0.496182	0.545305	0.064971	-0.232245	0.350355	0.490141	0.451980	-0.091149	-0.679285	-0.232857	-0.125383	0.403926	0.281942	-0.370019	-0.313859	-0.457689	0.819696	0.407871	-0.205144	-0.886011	-0.314288	0.232125	-1.475971	-1.552441	-1.363993	-0.462791	-0.154536
79.000000	0.525508	0.713941	0.247166	0.346668	0.500881	0.150305	0.882145	0.270714	0.532690	0.163964	-0.039336	0.220609	0.267656	0.591305	0.016767	-0.350575	-0.432164	-0.313374	0.202698	0.393740	-0.253801	-0.275822	-0.467786	0.880578	0.189341	-0.144177	-0.796019	-0.295790	0.302205	-1.419612	-1.461567	-1.148855	-0.232507	-0.236294
80.000000	0.352415	0.685767	-0.007979	0.239553	0.604707	0.345042	0.757742	0.008858	0.484033	0.253086	0.213547	0.159997	0.014068	0.531506	0.074779	0.104128	-0.253427	-0.590029	-0.012957	0.329166	-0.188532	-0.245013	0.119779	0.863188	-0.033756	-0.187486	-0.757807	-0.250311	0.423437	-1.487725	-1.495917	-1.053859	-0.121233	-0.259369
81.000000	0.276995	0.711803	-0.152661	0.202607	0.749732	0.576683	0.687926	-0.140938	0.420817	0.337579	0.416485	0.192766	-0.145330	0.285860	0.123655	0.382140	-0.086035	-0.817128	-0.149273	0.130959	-0.166274	-0.277387	0.963834	0.705886	-0.177140	-0.280068	-0.754829	-0.205499	0.581122	-1.636173	-1.661032	-1.097081	-0.019271	-0.270952
82.000000	0.403628	0.797871	-0.153941	0.278494	0.934724	0.863711	0.740458	-0.136107	0.355104	0.432423	0.481197	0.334090	-0.165053	-0.051423	0.171840	0.299976	-0.202592	-0.919540	-0.184556	-0.099223	-0.171506	-0.429644	1.636876	0.444384	-0.218029	-0.386312	-0.778039	-0.218478	0.751941	-1.793905	-1.854586	-1.163784	0.105359	-0.301808
83.000000	0.680166	0.936976	-0.086848	0.415801	1.101911	1.117240	0.893675	-0.064840	0.359041	0.528077	0.408806	0.486453	-0.101045	-0.271075	0.192610	-0.052044	-0.529317	-0.887381	-0.169962	-0.225225	-0.204120	-0.646110	1.870516	0.182126	-0.184326	-0.446606	-0.830741	-0.305932	0.870614	-1.897411	-1.981777	-1.159251	0.135140	-0.347363
84.000000	0.991905	1.071942	0.000460	0.567748	1.216137	1.272638	1.037607	0.017353	0.474089	0.607598	0.333402	0.504418	-0.011419	-0.267361	0.204660	-0.308927	-0.998982	-0.791120	-0.123686	-0.208923	-0.234663	-0.819370	1.706275	-0.016165	-0.120659	-0.447307	-0.903044	-0.452333	0.846191	-1.959281	-2.062391	-1.126791	0.067350	-0.415522
85.000000	1.245648	1.156188	0.075498	0.689249	1.278062	1.349956	1.078085	0.071551	0.619283	0.666226	0.446306	0.323175	0.058772	-0.141715	0.236907	-0.094708	-1.468089	-0.760092	-0.077316	-0.148291	-0.242263	-0.891272	1.461579	-0.045313	-0.078214	-0.453013	-0.989437	-0.633251	0.641897	-2.052752	-2.175259	-1.147398	-0.021399	-0.505322
86.000000	1.338616	1.153640	0.052240	0.707359	1.273226	1.365073	1.013606	0.022858	0.662358	0.690441	0.795357	0.019990	0.035013	-0.039828	0.273596	0.615479	-1.525248	-0.859354	-0.120539	-0.130860	-0.257218	-0.807425	1.468241	0.104752	-0.130021	-0.512979	-1.074212	-0.753833	0.346912	-2.208545	-2.321621	-1.197073	-0.161584	-0.646723
87.000000	1.274879	1.066984	-0.069266	0.626075	1.188744	1.330680	0.952722	-0.112161	0.578648	0.649642	1.069985	-0.120914	-0.081503	-0.022172	0.264777	1.278580	-0.959969	-0.977487	-0.241267	-0.179679	-0.289200	-0.582155	1.724990	0.176331	-0.263609	-0.617131	-1.113633	-0.719824	0.150776	-2.370888	-2.418920	-1.194037	-0.337618	-0.878346
88.000000	1.199309	0.995849	-0.172824	0.552699	1.084323	1.295675	1.007447	-0.224155	0.445872	0.562555	1.030395	0.098457	-0.179092	-0.070305	0.209508	1.396350	-0.155090	-0.936425	-0.326404	-0.268737	-0.319102	-0.337398	1.815575	-0.023847	-0.362446	-0.705247	-1.086997	-0.557882	0.108045	-2.465820	-2.441108	-1.169180	-0.459681	-1.145596
89.000000	1.203264	0.993196	-0.193277	0.558356	1.048272	1.320614	1.156905	-0.245049	0.350234	0.510086	0.885835	0.498068	-0.188286	-0.128786	0.173486	1.139579	0.403235	-0.738707	-0.321551	-0.331589	-0.329271	-0.144977	1.381942	-0.440598	-0.361939	-0.728559	-1.015913	-0.390392	0.063568	-2.499161	-2.422039	-1.206545	-0.535698	-1.364498
90.000000	1.248767	0.986888	-0.196468	0.582594	1.083087	1.412280	1.322008	-0.235713	0.303847	0.535243	0.853314	0.830719	-0.182125	-0.180412	0.182214	0.882751	0.652949	-0.598459	-0.305608	-0.368928	-0.313742	0.001841	0.733598	-0.760958	-0.348392	-0.719888	-0.916834	-0.284329	-0.044783	-2.526952	-2.372233	-1.256279	-0.718910	-1.482992
91.000000	1.292272	0.942739	-0.249628	0.565037	1.128522	1.514456	1.462401	-0.280915	0.251949	0.585082	0.890711	1.046348	-0.239267	-0.258500	0.187875	0.701908	0.662020	-0.580459	-0.375593	-0.437251	-0.298097	0.081797	0.512065	-0.691583	-0.422771	-0.745935	-0.808258	-0.231254	-0.096922	-2.563663	-2.307192	-1.237893	-1.073832	-1.485419
92.000000	1.332518	0.910217	-0.334255	0.533197	1.158967	1.578129	1.530476	-0.368306	0.199809	0.611737	0.943518	1.112822	-0.337589	-0.334446	0.171913	0.569979	0.409399	-0.565947	-0.503222	-0.523652	-0.288153	0.108539	0.808207	-0.361650	-0.560955	-0.810163	-0.721846	-0.210096	-0.031636	-2.582285	-2.260236	-1.184990	-1.398572	-1.470986
93.000000	1.350434	0.947313	-0.414585	0.519748	1.184567	1.593042	1.529996	-0.463635	0.207290	0.628012	0.987720	1.021245	-0.446746	-0.349637	0.157982	0.494594	0.134133	-0.601310	-0.618841	-0.589190	-0.265234	0.156109	1.212446	-0.066071	-0.690897	-0.884394	-0.666334	-0.192417	0.100650	-2.579831	-2.256649	-1.139504	-1.546145	-1.580240
94.000000	1.335771	1.100529	-0.475479	0.501952	1.209590	1.560413	1.577434	-0.543953	0.244190	0.637096	0.957759	0.921214	-0.541292	-0.343961	0.136087	0.380569	0.186639	-0.777711	-0.701891	-0.658098	-0.240252	0.216785	1.408997	0.130997	-0.777349	-0.977363	-0.640752	-0.162283	0.244322	-2.586208	-2.270223	-1.053530	-1.568220	-1.747704
95.000000	1.309378	1.346669	-0.519037	0.432285	1.219272	1.462462	1.709945	-0.587315	0.219352	0.623799	0.881699	0.924010	-0.598214	-0.414626	0.101970	0.261149	0.577726	-1.065525	-0.751249	-0.762172	-0.226449	0.265783	1.439958	0.319885	-0.822274	-1.107869	-0.646022	-0.105723	0.332952	-2.639837	-2.277307	-0.904679	-1.512767	-1.812521
96.000000	1.297929	1.551721	-0.543146	0.350059	1.227787	1.336079	1.825441	-0.596442	0.176894	0.614194	0.877023	0.995420	-0.634666	-0.531999	0.100119	0.348984	1.018955	-1.440496	-0.775151	-0.861332	-0.206334	0.358245	1.501819	0.484825	-0.846677	-1.252389	-0.670896	-0.042802	0.248111	-2.766758	-2.333244	-0.811273	-1.490622	-1.820300
97.000000	1.312378	1.579781	-0.548602	0.339626	1.286639	1.309279	1.822691	-0.574127	0.214690	0.660236	1.037048	1.016977	-0.661750	-0.591556	0.175372	0.782271	1.202880	-1.810995	-0.790808	-0.919626	-0.152671	0.575988	1.591522	0.541026	-0.885465	-1.384046	-0.700962	-0.001496	-0.065274	-2.966738	-2.488513	-0.905772	-1.566959	-1.871172
98.000000	1.365588	1.471832	-0.532287	0.395884	1.391426	1.400996	1.674575	-0.535694	0.310548	0.750898	1.318025	0.847338	-0.665706	-0.579534	0.306475	1.519681	1.033984	-2.020720	-0.805798	-0.946571	-0.058604	0.958226	1.617493	0.477587	-0.933556	-1.512392	-0.720271	0.071672	-0.438393	-3.236671	-2.732899	-1.193129	-1.640888	-1.950782
99.000000	1.526246	1.383367	-0.496848	0.462983	1.489150	1.505036	1.507440	-0.506665	0.386595	0.826189	1.499469	0.619041	-0.642157	-0.548585	0.413077	2.147981	0.788121	-2.016740	-0.810226	-0.946634	0.032138	1.346227	1.589810	0.342064	-0.938337	-1.632988	-0.724649	0.192779	-0.652728	-3.546838	-3.016890	-1.577430	-1.594274	-2.014209
100.000000	1.810853	1.414151	-0.437786	0.528780	1.535266	1.571343	1.491686	-0.455061	0.411779	0.846136	1.419431	0.651384	-0.565682	-0.544811	0.429834	2.127971	0.886254	-1.794394	-0.763016	-0.934618	0.045417	1.378062	1.537351	0.150108	-0.869529	-1.707745	-0.733336	0.242770	-0.682727	-3.819367	-3.255239	-1.915262	-1.402565	-2.065583
101.000000	2.112895	1.577979	-0.323520	0.603541	1.525981	1.624372	1.657923	-0.343754	0.400356	0.814903	1.156441	0.960717	-0.421008	-0.562518	0.373020	1.457351	1.264668	-1.380262	-0.644439	-0.929518	-0.024288	0.907953	1.465208	-0.103447	-0.735822	-1.712895	-0.768684	0.150114	-0.603828	-4.007842	-3.396366	-2.095232	-1.145128	-2.209765
102.000000	2.311262	1.816933	-0.174433	0.674675	1.486918	1.674403	1.872572	-0.196714	0.374652	0.762314	0.903345	1.256297	-0.260029	-0.563989	0.319382	0.703577	1.532618	-0.899098	-0.500552	-0.919179	-0.103792	0.273196	1.333934	-0.362437	-0.580547	-1.664856	-0.812431	-0.012180	-0.516863	-4.131307	-3.478414	-2.119257	-0.869045	-2.479875
103.000000	2.327376	2.015375	-0.069804	0.716169	1.428027	1.686595	1.961133	-0.083089	0.356483	0.717360	0.786962	1.326228	-0.155428	-0.537197	0.317139	0.399206	1.647959	-0.534012	-0.401125	-0.892560	-0.139309	-0.100174	1.170911	-0.565225	-0.472630	-1.606617	-0.828899	-0.124496	-0.513065	-4.224314	-3.537724	-2.071259	-0.645100	-2.755434
104.000000	2.144879	2.059333	-0.046999	0.707648	1.350453	1.648318	1.908776	-0.050441	0.356844	0.697793	0.792725	1.208615	-0.127132	-0.449910	0.362381	0.581956	1.731570	-0.397092	-0.364730	-0.824977	-0.110780	-0.102699	0.972941	-0.686368	-0.435848	-1.554796	-0.805009	-0.119004	-0.590177	-4.293645	-3.566048	-1.998578	-0.589403	-2.929562
105.000000	1.847850	1.964423	-0.044639	0.673851	1.266107	1.578185	1.793437	-0.044056	0.409354	0.711817	0.833652	1.003036	-0.106418	-0.233694	0.431588	0.962365	1.662965	-0.438356	-0.322193	-0.659873	-0.023139	0.120489	0.526208	-0.744682	-0.398268	-1.465660	-0.728174	-0.041613	-0.715279	-4.349634	-3.566529	-1.903118	-0.657097	-2.937098
106.000000	1.581473	1.829705	-0.001466	0.662294	1.190943	1.475426	1.621113	-0.001057	0.518565	0.749854	0.919601	0.731751	-0.044237	0.051234	0.512541	1.449399	1.415972	-0.564775	-0.236677	-0.445729	0.085321	0.430890	-0.317311	-0.744812	-0.319331	-1.352236	-0.617384	0.038792	-0.847304	-4.417747	-3.553651	-1.801161	-0.703431	-2.770186
107.000000	1.429125	1.732029	0.087603	0.667513	1.111449	1.347203	1.431698	0.081571	0.587318	0.766905	1.074537	0.476512	0.052592	0.214733	0.572697	1.996015	1.213870	-0.691961	-0.129995	-0.326605	0.163549	0.746653	-1.459810	-0.600829	-0.230510	-1.303710	-0.522947	0.114499	-0.911700	-4.480531	-3.522475	-1.686997	-0.723775	-2.532723
108.000000	1.389167	1.750189	0.225216	0.679408	1.021286	1.246791	1.392010	0.221558	0.590487	0.721467	1.142210	0.447722	0.196862	0.180271	0.544101	2.151752	1.188495	-0.769377	0.014977	-0.362307	0.175788	0.953445	-2.641567	-0.340746	-0.102018	-1.331277	-0.470529	0.193582	-0.862918	-4.497576	-3.469641	-1.578827	-0.854514	-2.353033
109.000000	1.428375	1.865224	0.359331	0.713634	0.937909	1.193403	1.544479	0.373526	0.599599	0.620342	1.008967	0.692799	0.339685	0.055813	0.439476	1.682766	1.334196	-0.815960	0.163541	-0.490319	0.136553	1.026450	-3.509295	-0.143373	0.056478	-1.383237	-0.447953	0.318471	-0.701036	-4.468932	-3.410584	-1.520329	-1.095776	-2.283616
110.000000	1.516835	1.984876	0.397821	0.755433	0.877844	1.154946	1.750341	0.416844	0.630242	0.514396	0.805926	0.985554	0.380356	-0.017841	0.357190	1.055150	1.501682	-0.798199	0.207418	-0.602362	0.079135	1.028039	-3.782297	-0.078231	0.126834	-1.435054	-0.434890	0.485578	-0.485011	-4.445837	-3.391321	-1.541397	-1.222297	-2.297872
111.000000	1.669927	2.088133	0.367119	0.793656	0.875873	1.140075	1.918534	0.377926	0.646343	0.446497	0.670442	1.128519	0.354817	-0.043596	0.331491	0.689481	1.514372	-0.629886	0.174617	-0.650292	0.015106	0.945874	-3.500358	-0.075333	0.120216	-1.469538	-0.438366	0.554925	-0.334972	-4.493788	-3.482887	-1.704930	-1.102228	-2.332978
112.000000	1.885350	2.179707	0.367731	0.841986	0.936452	1.131255	1.975585	0.378807	0.620710	0.417458	0.601433	1.077966	0.371521	-0.135855	0.305186	0.607091	1.317317	-0.283886	0.182264	-0.685147	-0.050872	0.801766	-2.967041	-0.019912	0.140507	-1.481249	-0.462253	0.477373	-0.275923	-4.599324	-3.674851	-1.981155	-0.812105	-2.354180
113.000000	2.087095	2.234311	0.416915	0.916539	1.017957	1.068499	1.876339	0.423745	0.600149	0.422594	0.546701	0.895883	0.431144	-0.268462	0.260002	0.693102	0.833279	0.160311	0.227538	-0.723048	-0.101917	0.696345	-2.470675	0.089827	0.177587	-1.476824	-0.477222	0.369817	-0.230218	-4.678986	-3.843481	-2.174849	-0.487168	-2.407752
114.000000	2.207023	2.199561	0.480178	0.984237	1.085899	0.969149	1.655630	0.461043	0.615384	0.452390	0.516329	0.636699	0.473684	-0.319334	0.239508	0.854531	0.180735	0.496764	0.252316	-0.704384	-0.113001	0.666025	-2.034553	0.092840	0.189974	-1.448192	-0.473996	0.304582	-0.152629	-4.716565	-3.903406	-2.148420	-0.248773	-2.533938
115.000000	2.246679	2.035711	0.519753	0.983905	1.146234	0.950292	1.385978	0.464893	0.610471	0.496535	0.584799	0.307842	0.471632	-0.293354	0.265344	1.123562	-0.310505	0.463760	0.238509	-0.634699	-0.068361	0.696867	-1.498482	-0.148898	0.163300	-1.401741	-0.464404	0.288335	-0.066203	-4.738111	-3.877824	-1.941820	-0.154502	-2.688627
116.000000	2.269144	1.816227	0.510258	0.943313	1.214241	1.065478	1.178847	0.430213	0.583699	0.562434	0.723383	0.015158	0.433917	-0.236626	0.310895	1.425146	-0.511956	0.062946	0.183625	-0.565702	0.002191	0.759441	-0.873308	-0.601701	0.090531	-1.353996	-0.447903	0.315012	-0.020796	-4.753819	-3.829782	-1.700508	-0.230549	-2.827367
117.000000	2.306720	1.687471	0.455661	0.927587	1.270583	1.201218	1.083968	0.366129	0.599491	0.618424	0.824956	-0.109303	0.362894	-0.121711	0.346069	1.582030	-0.467477	-0.416297	0.079924	-0.497764	0.041268	0.786920	-0.334935	-0.993199	-0.022883	-1.333298	-0.437028	0.355478	0.014086	-4.800433	-3.814352	-1.562197	-0.458112	-2.965895
118.000000	2.336847	1.678627	0.358928	0.933568	1.291674	1.282594	1.069513	0.274087	0.680742	0.625576	0.818159	-0.057890	0.252668	0.141839	0.389004	1.522019	-0.290815	-0.783351	-0.063604	-0.351860	0.066801	0.744081	-0.068956	-1.093680	-0.162733	-1.328225	-0.425315	0.382378	0.068381	-4.892732	-3.840012	-1.558314	-0.710234	-3.107629
119.000000	2.353619	1.675168	0.209348	0.910232	1.278806	1.347141	1.094736	0.147963	0.787725	0.607131	0.702662	0.061157	0.103202	0.554958	0.447866	1.239570	-0.130651	-0.996279	-0.221452	-0.092822	0.136764	0.739813	-0.077208	-0.991798	-0.306547	-1.269528	-0.374404	0.442966	0.131794	-4.991126	-3.869278	-1.651530	-0.835328	-3.208240
120.000000	2.334803	1.644068	0.042522	0.843811	1.243585	1.395182	1.155143	0.015143	0.847757	0.586551	0.562283	0.160861	-0.047587	0.857950	0.494595	0.832631	-0.015358	-1.078297	-0.350367	0.121480	0.225013	0.804369	-0.080416	-0.763619	-0.424021	-1.177696	-0.282831	0.567872	0.244306	-5.082190	-3.890187	-1.787355	-0.841205	-3.293397
121.000000	2.251788	1.644961	-0.018697	0.781314	1.172238	1.407529	1.277181	-0.025504	0.820138	0.540318	0.427859	0.303605	-0.092294	0.812194	0.498499	0.388990	0.111767	-1.105837	-0.366265	0.143218	0.269369	0.740261	0.086043	-0.387489	-0.439013	-1.116259	-0.197875	0.650158	0.391025	-5.172645	-3.900164	-1.896410	-0.842683	-3.399346
122.000000	2.144782	1.658300	0.097365	0.752028	1.066525	1.413407	1.432535	0.092410	0.712454	0.451244	0.311092	0.486998	0.034599	0.457342	0.457932	-0.010975	0.196638	-1.160658	-0.212812	-0.000959	0.267674	0.517218	0.239396	0.036324	-0.291486	-1.078967	-0.144659	0.643488	0.476492	-5.225472	-3.864586	-1.955669	-0.884242	-3.492858
123.000000	2.077442	1.689638	0.287778	0.731807	0.971221	1.427814	1.542260	0.278686	0.554665	0.360545	0.305212	0.569057	0.233544	-0.000091	0.427613	-0.175649	0.201188	-1.324018	0.024831	-0.213868	0.272742	0.342286	0.156321	0.377388	-0.062995	-1.043554	-0.090028	0.621235	0.460281	-5.193284	-3.780712	-2.029355	-0.903954	-3.551631
124.000000	2.076343	1.740055	0.402487	0.710735	0.911573	1.416164	1.533425	0.389224	0.409668	0.324031	0.404719	0.523525	0.339214	-0.338561	0.455167	-0.098734	0.239492	-1.522293	0.171348	-0.374423	0.334089	0.356446	-0.166420	0.565024	0.090269	-0.994847	0.005735	0.660274	0.407331	-5.090485	-3.695124	-2.185451	-0.810273	-3.586534
125.000000	2.116624	1.728757	0.381081	0.680135	0.875499	1.326210	1.399587	0.361938	0.312258	0.341261	0.505767	0.448723	0.305332	-0.486655	0.537023	0.069481	0.422832	-1.575247	0.158978	-0.415348	0.456259	0.552038	-0.511488	0.574738	0.094120	-0.933418	0.133361	0.789249	0.405901	-4.977352	-3.650692	-2.426955	-0.633829	-3.619921
126.000000	2.120708	1.638045	0.219357	0.596112	0.862339	1.180752	1.230656	0.190972	0.239221	0.407020	0.620274	0.433727	0.158311	-0.499287	0.668287	0.365382	0.762568	-1.563125	0.009506	-0.369078	0.627277	0.828749	-0.637835	0.381021	-0.042567	-0.875955	0.267950	0.951303	0.486892	-4.902422	-3.655602	-2.700560	-0.481065	-3.650020
127.000000	2.050068	1.483254	-0.019232	0.489325	0.894209	1.046356	1.056757	-0.058279	0.204476	0.523447	0.808671	0.426482	-0.051274	-0.418600	0.825587	0.856161	1.087948	-1.645768	-0.222997	-0.267009	0.818075	1.116365	-0.505615	0.028548	-0.267194	-0.829732	0.408733	1.097923	0.616093	-4.901889	-3.692129	-2.958764	-0.409832	-3.670848
128.000000	1.954137	1.294132	-0.229679	0.431625	0.961697	0.927878	0.835016	-0.272068	0.258190	0.654166	1.003896	0.325048	-0.240258	-0.253914	0.964648	1.384545	1.170483	-1.736131	-0.446435	-0.117905	0.989108	1.382302	-0.222960	-0.288699	-0.499020	-0.775182	0.536053	1.197789	0.714994	-4.964092	-3.742153	-3.197212	-0.421759	-3.685633
129.000000	1.889508	1.159012	-0.381306	0.420898	1.034160	0.809206	0.603839	-0.422322	0.380228	0.769861	1.060974	0.157828	-0.392483	-0.033621	1.077938	1.656722	0.938473	-1.705997	-0.619148	0.046643	1.120099	1.598003	0.207412	-0.449798	-0.686690	-0.702891	0.634398	1.254478	0.758484	-5.013969	-3.778638	-3.391304	-0.480221	-3.758394
130.000000	1.862934	1.104539	-0.494143	0.450359	1.119052	0.724481	0.443904	-0.547247	0.515598	0.864980	0.949579	-0.030554	-0.535480	0.220049	1.169278	1.525028	0.455026	-1.620289	-0.754867	0.213064	1.222225	1.737082	0.888567	-0.591951	-0.836190	-0.623725	0.723917	1.308212	0.789184	-4.996166	-3.756789	-3.499656	-0.570574	-3.972718
131.000000	1.893305	1.090781	-0.584942	0.533305	1.234977	0.717732	0.380854	-0.652613	0.679674	0.951818	0.795922	-0.220138	-0.666510	0.547388	1.263351	1.143773	-0.178005	-1.664976	-0.880971	0.421377	1.323101	1.697620	1.769048	-0.859712	-0.969461	-0.517374	0.796780	1.283185	0.807086	-4.938027	-3.672498	-3.525847	-0.654622	-4.303540
132.000000	2.004950	1.089837	-0.665369	0.652493	1.369730	0.754589	0.362809	-0.729447	0.873348	1.048349	0.734894	-0.398964	-0.767558	0.916143	1.390578	0.848138	-0.751953	-1.870041	-0.996808	0.659541	1.425530	1.498009	2.573338	-1.189702	-1.084311	-0.396509	0.845459	1.132992	0.746571	-4.911924	-3.608571	-3.556139	-0.625567	-4.660560
133.000000	2.131523	1.082747	-0.726032	0.785024	1.507472	0.812682	0.350956	-0.785601	1.052612	1.156662	0.811589	-0.532016	-0.830621	1.161953	1.525939	0.820314	-0.961034	-2.114954	-1.094762	0.818502	1.528407	1.343275	3.027012	-1.473647	-1.190155	-0.336140	0.895332	0.987072	0.574850	-4.953783	-3.643799	-3.731378	-0.506243	-4.999469
134.000000	2.220089	1.093071	-0.755519	0.931374	1.641025	0.933484	0.392647	-0.819643	1.226822	1.269084	0.956694	-0.538970	-0.864914	1.233568	1.634110	0.896612	-0.772494	-2.337186	-1.173228	0.851778	1.647674	1.293072	3.043118	-1.717126	-1.286606	-0.356282	0.964610	0.937156	0.326764	-5.037689	-3.745509	-4.087584	-0.413382	-5.323102
135.000000	2.294568	1.136197	-0.784051	1.090186	1.761267	1.087196	0.484227	-0.845124	1.421367	1.382709	1.086196	-0.428976	-0.893265	1.287965	1.720965	0.918200	-0.440060	-2.549936	-1.230842	0.863376	1.794276	1.299882	2.667290	-2.069310	-1.346843	-0.376454	1.074170	0.964136	0.052552	-5.093226	-3.819724	-4.508915	-0.372745	-5.579909
136.000000	2.356966	1.141564	-0.831676	1.223172	1.850032	1.176564	0.488266	-0.886792	1.609641	1.502703	1.230991	-0.322490	-0.923451	1.396572	1.809725	1.048292	-0.021094	-2.764375	-1.281156	0.945236	1.960965	1.459217	2.019808	-2.660642	-1.377862	-0.333333	1.219314	1.056112	-0.233925	-5.098439	-3.834622	-4.925287	-0.362610	-5.693703
137.000000	2.367668	1.090860	-0.871072	1.270913	1.867425	1.164109	0.378938	-0.923688	1.704850	1.612038	1.452756	-0.271676	-0.940247	1.405904	1.900698	1.493258	0.610671	-2.922204	-1.312299	1.001582	2.112595	1.836164	1.301637	-3.289060	-1.388110	-0.271332	1.346589	1.188642	-0.576139	-5.119450	-3.847407	-5.374609	-0.311053	-5.654658
138.000000	2.305011	1.025135	-0.884307	1.244755	1.813533	1.080753	0.247181	-0.919926	1.691105	1.701842	1.769198	-0.326252	-0.936053	1.286845	2.002782	2.229169	1.266401	-3.003135	-1.300402	0.962264	2.231975	2.288979	0.644920	-3.725146	-1.366499	-0.222947	1.448056	1.299114	-0.954997	-5.188010	-3.892185	-5.819161	-0.207912	-5.571279
139.000000	2.173958	0.845923	-0.863046	1.200432	1.748107	0.992118	0.047330	-0.870901	1.666670	1.793126	2.122270	-0.610106	-0.905360	1.258565	2.137308	3.047566	1.564385	-3.077025	-1.237423	0.975880	2.357601	2.670950	0.001497	-4.048692	-1.306092	-0.132364	1.573820	1.377494	-1.236834	-5.229295	-3.896427	-6.141432	-0.195590	-5.623836
140.000000	2.011919	0.521647	-0.822418	1.145391	1.710491	0.993602	-0.142204	-0.820233	1.654871	1.874488	2.318442	-0.905083	-0.862136	1.371999	2.266912	3.467937	1.494075	-3.134873	-1.157521	1.114046	2.488463	2.842212	-0.620022	-4.181725	-1.230434	0.021122	1.730059	1.418196	-1.304544	-5.147503	-3.800139	-6.317039	-0.324099	-5.807164
141.000000	1.931512	0.256751	-0.792043	1.109101	1.740675	1.153766	-0.091402	-0.802199	1.620784	1.946059	2.286489	-0.896602	-0.833375	1.441401	2.357469	3.149202	1.178699	-3.131144	-1.128600	1.239632	2.580925	2.697667	-1.048587	-3.958012	-1.210817	0.159300	1.880306	1.379336	-1.184676	-4.980050	-3.644787	-6.406782	-0.410975	-5.915648
142.000000	1.954139	0.180342	-0.790994	1.110639	1.849497	1.398321	0.089725	-0.810462	1.587321	2.034044	2.201622	-0.770175	-0.834668	1.407844	2.441857	2.482505	0.490312	-3.088938	-1.169040	1.267041	2.647464	2.381974	-1.093103	-3.530010	-1.269464	0.237284	2.017823	1.303694	-1.010476	-4.826458	-3.466341	-6.423321	-0.359527	-5.866920
143.000000	1.956869	0.265322	-0.820442	1.105739	1.960275	1.550866	0.171768	-0.843885	1.592547	2.107610	2.133953	-0.782896	-0.862101	1.404121	2.535114	1.992414	-0.554129	-3.072766	-1.232941	1.290489	2.727170	2.070773	-0.637417	-3.170021	-1.340456	0.320771	2.141567	1.225980	-0.896910	-4.710892	-3.272112	-6.356378	-0.392157	-5.756852
144.000000	1.865463	0.422090	-0.835366	1.092454	2.021937	1.548447	0.184597	-0.867568	1.633341	2.141333	1.990442	-0.888392	-0.879215	1.461555	2.610838	1.781067	-1.577045	-3.236001	-1.266473	1.373892	2.815099	1.797732	0.249118	-3.007328	-1.364163	0.434706	2.235732	1.116590	-0.872550	-4.653335	-3.095888	-6.233113	-0.668958	-5.650993
145.000000	1.718005	0.566795	-0.788383	1.109221	2.050389	1.484638	0.203208	-0.820183	1.664942	2.166994	1.779200	-0.980525	-0.842667	1.425298	2.651873	1.702919	-2.153633	-3.658551	-1.224564	1.398709	2.881061	1.598136	1.263735	-3.011496	-1.311380	0.515674	2.306271	1.001434	-0.926752	-4.675886	-2.978548	-6.115936	-1.029124	-5.553897
146.000000	1.605773	0.687554	-0.704268	1.147027	2.071801	1.436654	0.212289	-0.720608	1.653195	2.204367	1.649484	-1.001486	-0.759159	1.244612	2.679854	1.678212	-2.147304	-4.151493	-1.118852	1.284690	2.913464	1.545768	2.007188	-3.142541	-1.198510	0.528200	2.360383	0.928861	-1.110693	-4.752222	-2.945794	-6.086441	-1.262973	-5.483191
147.000000	1.533844	0.763514	-0.680994	1.126757	2.092933	1.383881	0.170030	-0.680127	1.589757	2.239278	1.699048	-0.985501	-0.721620	1.041092	2.728857	1.856012	-1.713801	-4.508457	-1.049158	1.126187	2.937184	1.718112	2.245386	-3.334580	-1.123063	0.505862	2.411521	0.936641	-1.429000	-4.800457	-2.964493	-6.114644	-1.281356	-5.435077
148.000000	1.463160	0.768764	-0.732459	1.041805	2.117524	1.278652	0.027998	-0.721886	1.509261	2.269014	1.874419	-1.080018	-0.764218	0.919047	2.806686	2.344208	-1.240126	-4.702039	-1.057039	1.042026	2.989941	2.096463	1.911084	-3.468822	-1.136031	0.501073	2.481859	1.031666	-1.788318	-4.720192	-2.947172	-6.116332	-1.133315	-5.384289
149.000000	1.439885	0.780500	-0.768820	0.999195	2.173192	1.142604	-0.161493	-0.762371	1.473167	2.313014	2.075801	-1.242669	-0.805913	0.903386	2.895284	2.921299	-0.954938	-4.759048	-1.080166	1.069034	3.058392	2.472819	1.023851	-3.547723	-1.176054	0.532267	2.554305	1.118255	-2.119553	-4.515570	-2.883311	-6.168621	-0.956954	-5.346287
150.000000	1.498900	0.902327	-0.731172	1.028579	2.267555	1.071066	-0.225677	-0.750442	1.483138	2.367867	2.233236	-1.279151	-0.777603	0.968485	2.959721	3.152306	-0.676637	-4.660317	-1.065919	1.165623	3.106492	2.609485	-0.202818	-3.654290	-1.178247	0.597416	2.600868	1.074578	-2.386552	-4.276649	-2.829393	-6.392776	-0.746353	-5.347597
151.000000	1.590654	1.061499	-0.618316	1.045984	2.350953	1.096367	-0.131799	-0.668786	1.499675	2.398094	2.328141	-1.184446	-0.675356	1.059928	2.974974	2.955762	-0.358664	-4.480695	-0.997858	1.265016	3.123679	2.499295	-1.384493	-3.750973	-1.116850	0.677944	2.622273	0.897791	-2.573628	-4.043443	-2.768612	-6.694110	-0.418107	-5.353595
152.000000	1.644088	1.131106	-0.504511	0.986441	2.349700	1.129028	0.022117	-0.565990	1.499521	2.364971	2.286697	-0.990676	-0.569318	1.124642	2.932502	2.540150	-0.051596	-4.447529	-0.910255	1.337267	3.117415	2.311156	-2.113243	-3.751141	-1.029636	0.761312	2.631412	0.710199	-2.667478	-3.808039	-2.635553	-6.834759	-0.059040	-5.269731
153.000000	1.618197	1.104581	-0.448790	0.883089	2.252440	1.070682	0.152427	-0.499172	1.494858	2.262899	2.033797	-0.732995	-0.511955	1.166474	2.852880	2.042126	0.196079	-4.597098	-0.834989	1.400200	3.103237	2.154977	-2.228615	-3.653056	-0.959609	0.868504	2.651865	0.586904	-2.693266	-3.571516	-2.431981	-6.733174	0.216355	-5.079725
154.000000	1.500531	1.005184	-0.430164	0.805916	2.119624	0.947633	0.183163	-0.460639	1.508416	2.142963	1.726905	-0.578718	-0.488432	1.224077	2.792399	1.708313	0.192854	-4.707254	-0.764693	1.479664	3.094364	2.083317	-1.926110	-3.558374	-0.895776	1.006991	2.699748	0.506723	-2.738284	-3.386284	-2.251974	-6.542082	0.386048	-4.892626
155.000000	1.306788	0.862031	-0.434394	0.772457	2.001889	0.875611	0.147164	-0.450452	1.519401	2.072474	1.555364	-0.608819	-0.485916	1.306496	2.780228	1.660989	-0.057546	-4.680994	-0.720702	1.589303	3.090566	2.055650	-1.468027	-3.532721	-0.843066	1.166740	2.760597	0.433120	-2.821674	-3.286100	-2.146344	-6.420112	0.384570	-4.762765
156.000000	1.094935	0.721720	-0.457257	0.755377	1.919611	0.940218	0.168507	-0.468878	1.500572	2.047075	1.526406	-0.703560	-0.490548	1.385335	2.778359	1.728969	-0.354179	-4.627163	-0.712298	1.721099	3.064280	1.899375	-1.011550	-3.464876	-0.807663	1.313397	2.799215	0.284696	-2.907249	-3.194364	-2.069509	-6.380048	0.164364	-4.609057
157.000000	0.956110	0.623682	-0.483911	0.741144	1.876019	1.122581	0.286800	-0.492848	1.467378	2.013831	1.508138	-0.733758	-0.489138	1.455914	2.747474	1.677704	-0.598909	-4.589503	-0.715748	1.856130	3.014297	1.587567	-0.674523	-3.290796	-0.780557	1.417053	2.792367	0.067115	-2.996090	-3.038271	-1.975192	-6.352062	-0.173426	-4.431039
158.000000	0.903742	0.595773	-0.534088	0.704853	1.850194	1.285221	0.407464	-0.538919	1.459701	1.974710	1.386779	-0.729828	-0.518007	1.586956	2.707151	1.418794	-0.777384	-4.523980	-0.742934	2.012201	2.985919	1.304742	-0.579281	-3.098248	-0.789051	1.512328	2.770972	-0.090551	-3.053592	-2.818497	-1.815217	-6.257923	-0.498947	-4.356587
