time	FP1	FP2	F7	F3	FZ	F4	F8	FT7	FC3	FCZ	FC4	FT8	T7	C3	CZ	C4	T8	M1	TP7	CP3	CPZ	CP4	TP8	M2	P7	P3	PZ	P4	P8	O1	OZ	O2	HEO	VEO	
-200.000000	-0.106250	0.049578	0.503290	0.259719	0.095132	0.590975	1.042985	0.528754	0.434262	0.128851	-0.171381	1.740824	0.510199	0.346295	0.064267	-0.638196	1.898230	0.782851	0.537349	0.433406	-0.079828	-0.184751	0.611785	1.892576	0.540363	0.334293	-0.159399	0.044756	1.376626	0.828177	1.000301	1.306658	-0.604847	1.467788
-199.000000	-0.170882	0.229939	0.347657	0.193866	0.083509	0.380554	0.898513	0.379640	0.405128	0.090724	-0.196368	1.490696	0.353291	0.370117	0.087856	-0.393258	1.504966	0.490807	0.414034	0.461998	-0.081744	0.025606	0.185742	1.560499	0.416742	0.298227	-0.171365	0.054608	0.813992	0.790909	0.878873	1.213404	-0.416892	1.326478
-198.000000	-0.287709	0.227420	0.217560	0.134625	0.065033	0.199823	0.723113	0.255557	0.384993	0.075676	-0.168296	1.229792	0.223228	0.365531	0.106670	-0.132828	1.330613	0.199022	0.293780	0.441116	-0.089974	0.317157	0.180390	1.018105	0.289638	0.216486	-0.171704	0.280388	0.186877	0.719676	0.704958	0.990435	-0.408330	1.292519
-197.000000	-0.448591	0.066159	0.095449	0.057213	0.042058	0.076554	0.556822	0.129353	0.350601	0.069580	-0.090170	1.058828	0.098692	0.318335	0.124829	0.123937	1.451187	-0.073702	0.135288	0.380085	-0.085456	0.643073	0.314091	0.497312	0.139955	0.131889	-0.166887	0.748056	-0.333957	0.614249	0.506193	0.724824	-0.552115	1.364976
-196.000000	-0.593109	-0.193522	-0.076878	0.026196	0.024115	0.046631	0.407182	-0.068614	0.316278	0.076520	0.073422	0.897898	-0.101398	0.279933	0.156312	0.451113	1.663330	-0.273538	-0.121758	0.313311	-0.069613	0.894886	0.390707	0.257391	-0.086848	0.072644	-0.180428	1.071907	-0.515287	0.485298	0.331655	0.531927	-0.658699	1.517701
-195.000000	-0.659756	-0.502055	-0.304510	0.044058	0.007308	0.061524	0.196386	-0.326750	0.308361	0.114937	0.369555	0.615206	-0.367864	0.312769	0.208700	0.915493	1.647876	-0.261728	-0.434526	0.311641	-0.059781	0.894977	0.306071	0.280946	-0.373276	0.111866	-0.216008	0.841497	-0.343751	0.374581	0.203211	0.363082	-0.538284	1.732244
-194.000000	-0.643173	-0.818407	-0.441443	0.052086	-0.032043	-0.019834	-0.066871	-0.462026	0.337000	0.145589	0.626535	0.353562	-0.498410	0.441015	0.263008	1.311354	1.329510	0.019121	-0.598169	0.401372	-0.051040	0.635342	-0.140640	0.359027	-0.531527	0.229221	-0.230965	0.306862	-0.038959	0.326798	0.156320	0.207363	-0.258123	1.953148
-193.000000	-0.559295	-1.064667	-0.324715	0.012173	-0.101388	-0.166521	-0.196444	-0.324573	0.378200	0.127262	0.643932	0.306175	-0.333390	0.614882	0.294349	1.263336	0.932543	0.475111	-0.441257	0.499771	-0.037168	0.291227	-0.933947	0.494318	-0.380882	0.282666	-0.192962	-0.089153	0.253858	0.373820	0.247022	0.202057	0.009038	2.120014
-192.000000	-0.477609	-1.197074	-0.020730	-0.073261	-0.191758	-0.257829	-0.202848	-0.014810	0.379574	0.093799	0.551022	0.326534	0.016888	0.710932	0.303535	0.905226	0.640328	0.890530	-0.089922	0.540620	0.005141	0.070963	-1.671081	0.717318	-0.038336	0.257931	-0.111777	-0.238932	0.473082	0.459925	0.407117	0.314448	0.337657	2.227312
-191.000000	-0.425815	-1.163812	0.313200	-0.120525	-0.269919	-0.238467	-0.111845	0.317690	0.320830	0.088595	0.414741	0.413507	0.379352	0.618562	0.293337	0.513671	0.558172	1.139076	0.273562	0.510531	0.072903	-0.035923	-1.856607	0.952605	0.305450	0.238065	-0.023419	-0.234242	0.583705	0.531496	0.544014	0.420717	0.691171	2.294074
-190.000000	-0.372249	-0.931308	0.580218	-0.092804	-0.310526	-0.153355	0.170101	0.597302	0.228430	0.099103	0.141853	0.670796	0.660717	0.376265	0.270291	0.061284	0.662869	1.299159	0.595752	0.441482	0.120228	-0.163051	-1.334333	1.130476	0.597881	0.274736	0.040236	-0.177523	0.645045	0.628389	0.662108	0.485348	0.712803	2.312558
-189.000000	-0.321160	-0.646351	0.737312	-0.054010	-0.334392	-0.143999	0.476880	0.777790	0.122665	0.094780	-0.146813	0.892019	0.814279	0.143705	0.258869	-0.315308	0.717778	1.477732	0.830714	0.382374	0.146885	-0.241162	-0.440728	1.180789	0.812186	0.363151	0.075523	-0.084000	0.751525	0.724466	0.747225	0.466275	0.408386	2.292596
-188.000000	-0.261769	-0.465849	0.833941	-0.031153	-0.346245	-0.240098	0.558060	0.872999	0.044627	0.074952	-0.287432	0.896399	0.886798	0.030891	0.253250	-0.468628	0.610245	1.721759	0.961837	0.354250	0.162488	-0.198630	0.368398	1.185143	0.949222	0.446038	0.092995	0.037252	0.894100	0.765371	0.771648	0.387092	0.226060	2.244415
-187.000000	-0.194095	-0.339115	0.892137	-0.006359	-0.320976	-0.381293	0.445957	0.902102	0.031136	0.052397	-0.284776	0.728754	0.915671	0.044041	0.221102	-0.502924	0.455137	1.990989	0.985379	0.358858	0.144282	-0.148937	0.962500	1.184694	1.001721	0.481932	0.099874	0.114758	0.916968	0.762885	0.731144	0.314588	0.422802	2.164831
-186.000000	-0.190676	-0.217702	0.843750	-0.003726	-0.260395	-0.515120	0.249088	0.838277	0.052310	0.038029	-0.195062	0.465881	0.854525	0.161732	0.167704	-0.518751	0.363520	2.200401	0.892121	0.394985	0.098572	-0.160946	1.540614	1.068648	0.927548	0.477798	0.092691	0.101226	0.750133	0.717317	0.621757	0.236270	0.827787	2.063033
-185.000000	-0.271185	-0.189178	0.709833	0.002035	-0.181479	-0.548471	0.009231	0.704471	0.121506	0.047435	-0.121189	0.205932	0.715893	0.409048	0.125211	-0.565762	0.244618	2.202497	0.736227	0.481936	0.053377	-0.191745	2.145558	0.825092	0.753724	0.452129	0.056268	0.027345	0.526244	0.585291	0.436552	0.092351	1.008476	1.823109
-184.000000	-0.332042	-0.263047	0.624054	0.090460	-0.077960	-0.434290	-0.191522	0.618603	0.238846	0.078341	-0.183317	0.080652	0.606583	0.687476	0.095190	-0.645758	-0.048445	1.905894	0.624362	0.573074	0.003992	-0.248184	2.384585	0.566329	0.604612	0.392879	-0.017230	-0.100878	0.335625	0.366926	0.188932	-0.158705	0.704467	1.385470
-183.000000	-0.288583	-0.388419	0.585633	0.177981	0.032508	-0.253483	-0.376258	0.585273	0.262380	0.110517	-0.238439	-0.024997	0.536177	0.729689	0.065355	-0.544457	-0.350709	1.511495	0.567930	0.555563	-0.049520	-0.304904	1.979011	0.341467	0.531016	0.291064	-0.097863	-0.245115	0.175515	0.181180	-0.019484	-0.413342	0.255575	0.994652
-182.000000	-0.208573	-0.577045	0.476038	0.122839	0.101365	-0.159711	-0.632590	0.475454	0.116784	0.124940	-0.054987	-0.371915	0.412674	0.469451	0.050126	-0.032264	-0.509355	1.174380	0.470036	0.398780	-0.082799	-0.204018	1.141043	0.064316	0.448141	0.169043	-0.151492	-0.276311	0.043877	0.109547	-0.111199	-0.522389	0.147930	0.830274
-181.000000	-0.155166	-0.779197	0.343996	0.006440	0.125637	-0.198374	-0.820743	0.330955	-0.066029	0.110004	0.209960	-0.777357	0.286482	0.098922	0.043458	0.630599	-0.486694	0.873192	0.356719	0.181733	-0.111241	0.048146	0.303887	-0.158356	0.356055	0.055578	-0.169095	-0.181755	-0.037601	0.123246	-0.097814	-0.448850	0.288641	0.770560
-180.000000	-0.071042	-0.964208	0.332734	0.000058	0.136655	-0.259321	-0.793274	0.311925	-0.144966	0.077312	0.256065	-0.857468	0.290151	-0.175339	0.010472	0.915241	-0.187107	0.747243	0.342577	0.000254	-0.162826	0.207469	-0.118716	-0.103871	0.343882	-0.037180	-0.147127	-0.072850	-0.000843	0.186608	0.004098	-0.225598	0.470776	0.738983
-179.000000	0.009834	-1.148954	0.421793	0.069656	0.134251	-0.232628	-0.635021	0.403517	-0.130175	0.041604	0.121615	-0.630806	0.393638	-0.215532	-0.042213	0.766094	0.081546	0.824079	0.413185	-0.052625	-0.204869	0.203845	-0.132594	0.122855	0.397559	-0.082711	-0.092038	-0.015951	0.077006	0.255386	0.122460	-0.008384	0.748911	0.799185
-178.000000	0.019127	-1.236039	0.483262	0.091325	0.104087	-0.084159	-0.441155	0.469327	-0.097183	0.015369	0.008483	-0.290846	0.469025	-0.034651	-0.082733	0.540495	0.006318	0.905487	0.462000	0.053270	-0.188350	0.204395	-0.090418	0.312776	0.434740	-0.048044	-0.021354	-0.009769	0.018030	0.303249	0.168409	0.030343	1.000559	0.965457
-177.000000	-0.034187	-1.206869	0.438014	0.041888	0.042282	0.095837	-0.287290	0.425718	-0.076028	0.004072	0.019381	-0.051800	0.431646	0.215548	-0.086402	0.545196	-0.299601	0.817504	0.410610	0.207254	-0.123915	0.370571	-0.090671	0.411450	0.399526	0.019999	0.044120	0.031568	-0.137739	0.318307	0.121588	-0.122147	0.993119	1.175901
-176.000000	-0.123892	-1.119918	0.314925	-0.053775	-0.048397	0.153975	-0.229182	0.301075	-0.028367	-0.025836	0.144398	-0.166963	0.297301	0.454123	-0.051791	0.799670	-0.721101	0.549261	0.296245	0.309529	-0.056453	0.642554	-0.024416	0.395941	0.309017	0.074838	0.100188	0.167138	-0.232397	0.311083	0.055221	-0.327580	0.835691	1.321223
-175.000000	-0.122324	-0.871081	0.276313	-0.107053	-0.139302	0.107567	-0.209868	0.257461	0.060593	-0.074953	0.260442	-0.481420	0.241739	0.634581	-0.016489	0.947646	-1.012735	0.365210	0.282015	0.367014	-0.011830	0.680806	0.070909	0.354328	0.298036	0.147632	0.155791	0.272402	-0.205408	0.362306	0.091859	-0.422567	0.872819	1.281807
-174.000000	0.075164	-0.382971	0.492653	0.023063	-0.190143	0.101782	-0.109013	0.467800	0.138865	-0.105878	0.243741	-0.499014	0.447946	0.591166	-0.017440	0.636872	-0.852455	0.444340	0.511426	0.400728	0.011006	0.337408	-0.043916	0.390746	0.504352	0.275160	0.207583	0.243556	-0.082287	0.514948	0.240033	-0.390767	1.083151	0.951491
-173.000000	0.363202	0.169649	0.918196	0.308537	-0.200700	0.126734	0.090625	0.884567	0.185162	-0.120887	0.106545	-0.191766	0.861634	0.340449	-0.050341	0.087667	-0.428102	0.704438	0.936043	0.431485	0.025073	-0.109004	-0.607666	0.353725	0.894784	0.469121	0.251041	0.118472	-0.002643	0.691437	0.390012	-0.343603	1.224610	0.399250
-172.000000	0.566865	0.553500	1.331524	0.517449	-0.211438	0.084284	0.190299	1.286535	0.180123	-0.131261	-0.025500	-0.031337	1.265440	0.105256	-0.075675	-0.137906	-0.193913	1.000306	1.355583	0.468193	0.034059	-0.356985	-1.484429	0.136780	1.300895	0.672775	0.287113	-0.025009	-0.058319	0.800515	0.464667	-0.346905	1.335760	-0.112823
-171.000000	0.624845	0.703503	1.572383	0.503878	-0.239179	0.017218	0.121933	1.512802	0.100814	-0.142102	-0.068441	-0.127948	1.493871	-0.051079	-0.081584	0.032954	-0.155218	1.207385	1.608362	0.471174	0.041824	-0.345237	-2.119471	-0.057829	1.558148	0.798157	0.320764	-0.081561	-0.117894	0.843722	0.499866	-0.340294	1.484517	-0.380802
-170.000000	0.574388	0.640683	1.603130	0.364890	-0.263325	-0.057985	-0.014279	1.524351	0.016519	-0.155328	-0.090337	-0.273429	1.507817	-0.134084	-0.091646	0.213498	-0.070660	1.274283	1.644055	0.423887	0.051894	-0.237405	-2.108666	-0.078372	1.584918	0.824755	0.354971	-0.051043	-0.080701	0.842899	0.537728	-0.270443	1.604160	-0.377938
-169.000000	0.512510	0.441297	1.491099	0.303442	-0.269322	-0.190346	-0.175675	1.407462	0.045835	-0.149453	-0.211711	-0.394129	1.406009	-0.070538	-0.103566	0.131021	-0.037445	1.194308	1.532955	0.394264	0.055359	-0.249172	-1.587959	-0.035970	1.464732	0.796696	0.372889	-0.061454	-0.030393	0.797376	0.557486	-0.154628	1.616257	-0.237038
-168.000000	0.525040	0.219463	1.317697	0.365715	-0.241366	-0.280499	-0.278902	1.245112	0.188192	-0.119344	-0.413298	-0.456549	1.267552	0.173032	-0.103392	-0.277977	-0.210745	1.069429	1.349549	0.449582	0.038864	-0.431246	-0.889114	-0.137709	1.299915	0.757248	0.344758	-0.168477	-0.102909	0.723700	0.540493	-0.061190	1.538394	-0.161211
-167.000000	0.585480	0.013066	1.104087	0.419539	-0.182718	-0.286249	-0.297325	1.039215	0.310534	-0.106174	-0.608293	-0.447590	1.081485	0.478229	-0.088491	-0.888547	-0.333646	1.049757	1.118186	0.544645	0.000012	-0.662984	-0.258874	-0.437681	1.097255	0.700160	0.271209	-0.314271	-0.318058	0.647742	0.489298	-0.057331	1.437491	-0.259310
-166.000000	0.642953	-0.130502	0.964710	0.428636	-0.132829	-0.314921	-0.284259	0.908219	0.326779	-0.127620	-0.789971	-0.344053	0.953787	0.608430	-0.064294	-1.473407	-0.192481	1.167551	0.970895	0.572006	-0.036034	-0.789807	0.031302	-0.794044	0.965971	0.621176	0.197123	-0.401150	-0.523152	0.599028	0.430499	-0.109187	1.334225	-0.426923
-165.000000	0.748215	-0.079089	0.957089	0.452400	-0.100028	-0.360167	-0.232839	0.923134	0.237046	-0.167676	-0.884680	-0.208671	0.945257	0.434253	-0.049436	-1.812636	0.043346	1.350773	0.971771	0.471691	-0.057297	-0.786662	-0.163544	-1.044242	0.968004	0.534005	0.149463	-0.388297	-0.588466	0.598250	0.398748	-0.137572	1.309126	-0.649757
-164.000000	0.962133	0.174198	0.970270	0.477483	-0.065278	-0.341980	-0.223809	0.962406	0.105598	-0.201636	-0.708860	-0.223277	0.946343	0.116957	-0.044501	-1.681896	0.212808	1.459440	1.001972	0.295672	-0.091552	-0.742560	-0.724049	-1.107209	0.991010	0.434328	0.109779	-0.361264	-0.572239	0.606658	0.384097	-0.136379	1.377856	-1.070867
-163.000000	1.217667	0.452205	0.996260	0.493007	-0.033912	-0.295340	-0.373132	1.008726	0.049855	-0.194133	-0.297848	-0.434607	0.954348	-0.049749	-0.036372	-1.101010	0.279035	1.498185	1.018293	0.170609	-0.152542	-0.707759	-1.413699	-0.942694	1.013476	0.346819	0.070284	-0.391825	-0.576517	0.585848	0.360759	-0.137375	1.429452	-1.510702
-162.000000	1.415525	0.725530	1.055746	0.535496	-0.014166	-0.263979	-0.443419	1.079131	0.116786	-0.160633	-0.033033	-0.579791	0.999507	0.053726	-0.028113	-0.490642	0.239623	1.585583	1.035073	0.165861	-0.219317	-0.694769	-1.974342	-0.494184	1.050547	0.316024	0.042279	-0.448726	-0.583621	0.561228	0.357707	-0.101326	1.398583	-1.631949
-161.000000	1.518356	1.018057	1.078021	0.587657	-0.001485	-0.165835	-0.208845	1.091440	0.234296	-0.132381	-0.104837	-0.409827	1.022194	0.305620	-0.037014	-0.202024	0.117450	1.650878	1.018351	0.257939	-0.262536	-0.694228	-2.234415	0.164969	1.047481	0.352845	0.038498	-0.479126	-0.529256	0.570270	0.422589	0.028057	1.280560	-1.427042
-160.000000	1.515575	1.186478	1.074005	0.592112	-0.000259	0.037869	0.125125	1.066391	0.313680	-0.102171	-0.250535	-0.064035	1.027246	0.511931	-0.063668	-0.133564	-0.025449	1.636067	0.985978	0.360843	-0.268102	-0.668141	-2.122796	0.799439	1.026780	0.432547	0.063927	-0.453432	-0.415502	0.631654	0.547445	0.236889	1.106044	-1.164605
-159.000000	1.483053	1.251728	1.139733	0.576085	-0.023927	0.242551	0.373593	1.121673	0.332555	-0.074332	-0.250969	0.185403	1.098012	0.535108	-0.085887	-0.047315	-0.051371	1.655269	1.024534	0.377854	-0.239517	-0.576520	-1.571113	1.254410	1.080043	0.498590	0.109814	-0.372786	-0.247162	0.747758	0.706140	0.491848	0.943265	-1.093474
-158.000000	1.493591	1.367273	1.255182	0.599516	-0.077859	0.309814	0.530204	1.245595	0.319454	-0.062882	-0.150278	0.239845	1.225488	0.371663	-0.094083	0.157883	0.008679	1.767633	1.142744	0.289665	-0.176491	-0.368620	-0.636421	1.529409	1.200769	0.507883	0.171942	-0.227383	0.035616	0.899450	0.906279	0.788036	0.883174	-1.237950
-157.000000	1.521105	1.492756	1.285021	0.652989	-0.132877	0.206582	0.566052	1.297315	0.326474	-0.057314	-0.067206	0.151957	1.277223	0.223850	-0.093540	0.397639	-0.052745	1.823939	1.214578	0.189154	-0.099819	-0.096523	0.316040	1.690962	1.254239	0.469162	0.226417	-0.056888	0.361483	1.006856	1.085812	1.049610	0.938627	-1.479763
-156.000000	1.529992	1.541961	1.165916	0.707236	-0.141342	0.085715	0.494827	1.194661	0.383147	-0.036674	-0.022344	0.003773	1.168594	0.280486	-0.096690	0.478128	-0.304890	1.695960	1.134696	0.192324	-0.052961	0.035498	0.868673	1.817985	1.149402	0.417718	0.238032	0.019750	0.550739	1.019543	1.152103	1.180859	0.911886	-1.711035
-155.000000	1.489186	1.547237	0.949957	0.729933	-0.099764	0.083059	0.458138	0.974416	0.434381	-0.003042	-0.003377	-0.089533	0.952878	0.444405	-0.111775	0.321388	-0.760311	1.524077	0.929278	0.279153	-0.044914	-0.070939	0.976362	1.789800	0.935716	0.376651	0.211539	-0.032575	0.578098	0.991827	1.140393	1.210294	0.614020	-1.916558
-154.000000	1.461538	1.544509	0.758657	0.730085	-0.029271	0.178803	0.529475	0.765668	0.418338	0.025779	-0.101550	-0.078745	0.767393	0.490542	-0.143545	-0.138081	-1.377562	1.411439	0.735874	0.321872	-0.072423	-0.321109	0.893180	1.527564	0.735014	0.347816	0.172815	-0.143013	0.558068	0.979247	1.137809	1.226283	0.110446	-2.168534
-153.000000	1.562782	1.510808	0.696129	0.760845	0.077366	0.315463	0.604353	0.689051	0.380933	0.054929	-0.304689	-0.082604	0.709380	0.355706	-0.194650	-0.818024	-2.011969	1.257286	0.664750	0.247708	-0.141984	-0.601257	0.823068	1.176200	0.640779	0.304233	0.117284	-0.264298	0.552364	0.966670	1.139876	1.226931	-0.299414	-2.463855
-152.000000	1.796669	1.454701	0.737213	0.826880	0.211209	0.419761	0.620173	0.732042	0.399829	0.108490	-0.426320	-0.142121	0.748658	0.184860	-0.234778	-1.251657	-2.389963	1.043404	0.677242	0.098928	-0.232790	-0.826174	0.740648	0.788095	0.644629	0.220366	0.023569	-0.400392	0.478454	0.893168	1.069381	1.117745	-0.316531	-2.719264
-151.000000	2.063684	1.404468	0.806063	0.885580	0.332483	0.448955	0.535470	0.811128	0.462120	0.185829	-0.370839	-0.236578	0.812992	0.127220	-0.230293	-1.139094	-2.257850	0.855203	0.716347	-0.012152	-0.313658	-0.953821	0.460814	0.397200	0.682065	0.134687	-0.102190	-0.550420	0.243781	0.758201	0.895370	0.897612	0.060252	-2.913751
-150.000000	2.267748	1.349104	0.894043	0.917012	0.430005	0.428320	0.333165	0.907894	0.493276	0.253040	-0.197435	-0.398921	0.892218	0.123678	-0.196510	-0.658252	-1.788447	0.722588	0.783070	-0.071125	-0.374038	-0.986361	-0.075339	0.047558	0.728815	0.065693	-0.233495	-0.686328	-0.099814	0.629861	0.683862	0.662583	0.647704	-3.096851
-149.000000	2.381333	1.344860	0.949722	0.950101	0.509513	0.398192	0.139202	0.966505	0.477420	0.290449	0.026157	-0.553900	0.937043	0.064264	-0.166133	-0.059218	-1.203880	0.676778	0.813701	-0.160519	-0.420247	-0.899548	-0.663178	-0.214494	0.742243	-0.027933	-0.343380	-0.739929	-0.360577	0.521483	0.503627	0.469085	1.214944	-3.275319
-148.000000	2.430426	1.467008	0.897164	0.995492	0.576329	0.418553	0.093142	0.891434	0.458394	0.319084	0.227118	-0.546406	0.875631	-0.024338	-0.158220	0.409582	-0.499212	0.691247	0.728716	-0.278786	-0.454345	-0.723357	-0.993266	-0.286032	0.651355	-0.158162	-0.418108	-0.668646	-0.364724	0.410112	0.367304	0.342111	1.549531	-3.427950
-147.000000	2.486236	1.720429	0.828966	1.041710	0.632760	0.509885	0.254952	0.784764	0.457567	0.346501	0.271875	-0.287680	0.795499	-0.071031	-0.171199	0.406095	0.235676	0.671555	0.617825	-0.364853	-0.475520	-0.599726	-0.892397	-0.133308	0.524581	-0.289696	-0.461561	-0.539784	-0.135017	0.321178	0.299072	0.309460	1.666492	-3.523516
-146.000000	2.585852	2.053623	0.839680	1.090107	0.665974	0.634049	0.559586	0.774136	0.488105	0.357417	0.117603	0.150755	0.788480	-0.021279	-0.188970	-0.131617	0.746821	0.602056	0.585863	-0.381478	-0.492112	-0.578548	-0.428683	0.174601	0.477468	-0.386343	-0.477004	-0.413104	0.178846	0.262887	0.295788	0.353459	1.698355	-3.486712
-145.000000	2.677506	2.302480	0.820195	1.115249	0.672203	0.742362	0.829191	0.758251	0.546386	0.358167	-0.082911	0.543123	0.754730	0.156887	-0.197579	-0.769594	0.875596	0.491684	0.523840	-0.307424	-0.499408	-0.546599	0.090232	0.477006	0.436998	-0.444666	-0.474623	-0.289565	0.385639	0.171439	0.251415	0.367692	1.650519	-3.282010
-144.000000	2.715808	2.360198	0.637970	1.054108	0.644255	0.799626	0.936897	0.594765	0.572520	0.354932	-0.148138	0.722950	0.571716	0.384900	-0.181707	-1.024468	0.745146	0.355828	0.308666	-0.170693	-0.481806	-0.420376	0.296747	0.579366	0.269395	-0.447883	-0.462549	-0.143761	0.306564	0.018959	0.113754	0.269318	1.493084	-2.951810
-143.000000	2.718678	2.290092	0.361356	0.867239	0.563916	0.817706	0.904134	0.331610	0.488690	0.331313	-0.091100	0.686671	0.300810	0.457091	-0.157206	-0.867519	0.474403	0.230984	0.024246	-0.075156	-0.439960	-0.206710	0.100280	0.476894	0.025684	-0.384947	-0.406710	0.163886	0.062622	-0.105939	-0.002344	0.164299	1.322279	-2.619435
-142.000000	2.732333	2.216307	0.212501	0.650064	0.465430	0.838141	0.881592	0.199576	0.299817	0.281891	-0.043135	0.614256	0.168413	0.239810	-0.153652	-0.652564	0.128388	0.188415	-0.092319	-0.171616	-0.406298	0.023322	-0.092195	0.369888	-0.082968	-0.398900	-0.311778	0.574106	0.030175	-0.151731	-0.044667	0.157140	1.170243	-2.447076
-141.000000	2.815613	2.245458	0.324451	0.592699	0.429309	0.911751	1.009536	0.344174	0.139557	0.257263	0.034795	0.734159	0.309589	-0.152877	-0.155333	-0.508245	-0.002216	0.237163	0.072388	-0.480502	-0.413415	0.112491	0.227807	0.319638	0.048989	-0.609040	-0.273976	0.658677	0.355737	-0.214626	-0.128636	0.141236	0.968105	-2.490672
-140.000000	2.926868	2.306971	0.578779	0.704628	0.462354	1.019338	1.175577	0.612566	0.086854	0.291396	0.236973	0.919744	0.578772	-0.475678	-0.134792	-0.212617	0.214988	0.315828	0.346817	-0.795875	-0.440923	0.039737	0.898742	0.265446	0.286558	-0.861404	-0.327562	0.344508	0.820153	-0.323028	-0.285350	0.047436	0.785394	-2.670481
-139.000000	2.930131	2.274145	0.745398	0.793665	0.489876	1.074144	1.203056	0.780268	0.056374	0.331383	0.454186	0.900020	0.742696	-0.645009	-0.096981	0.219157	0.490703	0.486950	0.524286	-0.965823	-0.453018	-0.002984	1.398387	0.242778	0.448379	-0.998463	-0.392895	0.056990	1.179776	-0.374742	-0.393239	-0.025962	0.694740	-2.909479
-138.000000	2.790267	2.190091	0.724457	0.772211	0.484756	1.087796	1.159279	0.766045	-0.006796	0.340663	0.549494	0.764873	0.711160	-0.732480	-0.067665	0.476593	0.710221	0.692012	0.526643	-1.002461	-0.448744	0.054701	1.546352	0.293715	0.451242	-1.024593	-0.417091	-0.000663	1.379668	-0.350927	-0.383014	0.000033	0.566920	-3.164602
-137.000000	2.590476	2.143104	0.561169	0.711817	0.477176	1.106649	1.187733	0.589557	-0.066563	0.337281	0.511848	0.768054	0.535507	-0.764158	-0.058360	0.432888	0.873930	0.757878	0.379776	-0.952547	-0.435139	0.097529	1.490617	0.440327	0.318952	-0.995001	-0.418816	0.031725	1.435356	-0.330248	-0.321315	0.081023	0.202260	-3.353131
-136.000000	2.434743	2.158313	0.345675	0.655502	0.478287	1.099059	1.275783	0.344799	-0.120019	0.335263	0.415009	0.850647	0.310726	-0.773092	-0.047875	0.257097	0.711951	0.700324	0.166015	-0.891297	-0.415346	0.064872	1.548181	0.638568	0.132907	-0.977032	-0.430413	0.035577	1.365197	-0.364153	-0.296890	0.143259	-0.253409	-3.430892
-135.000000	2.353206	2.187184	0.107681	0.568760	0.497634	1.079122	1.254150	0.083007	-0.204329	0.328023	0.401313	0.731927	0.065031	-0.828088	-0.037204	0.183472	0.244722	0.549251	-0.081017	-0.873854	-0.403825	0.002251	1.979281	0.775077	-0.087869	-0.992503	-0.460430	0.029916	1.283669	-0.438023	-0.294968	0.231147	-0.441614	-3.447684
-134.000000	2.328963	2.238680	-0.125574	0.470328	0.544500	1.083411	1.153793	-0.162979	-0.282969	0.295825	0.417736	0.509707	-0.168504	-0.897817	-0.058810	0.164755	-0.071447	0.260988	-0.329771	-0.878985	-0.417828	-0.091055	2.643360	0.886447	-0.329562	-1.017027	-0.485690	0.043101	1.302687	-0.523411	-0.267218	0.408341	-0.362270	-3.475676
-133.000000	2.357446	2.386031	-0.283195	0.432369	0.600434	1.063180	1.202724	-0.320016	-0.289888	0.244348	0.252534	0.507244	-0.321668	-0.906262	-0.106746	-0.051335	-0.096481	-0.131513	-0.524993	-0.885019	-0.445834	-0.243462	3.051130	1.096561	-0.535495	-1.046335	-0.493689	0.053845	1.366940	-0.609328	-0.242638	0.598272	-0.136794	-3.580010
-132.000000	2.382718	2.566471	-0.401834	0.440180	0.635135	0.983678	1.378944	-0.436709	-0.243766	0.199624	-0.021292	0.726001	-0.444565	-0.836218	-0.144630	-0.418149	-0.011928	-0.492373	-0.683128	-0.875207	-0.459873	-0.383798	2.925458	1.379449	-0.714297	-1.083491	-0.490506	0.055877	1.395810	-0.686056	-0.261172	0.692825	0.141613	-3.776292
-131.000000	2.328187	2.668485	-0.576679	0.434509	0.629586	0.875243	1.492123	-0.617041	-0.160434	0.170716	-0.171138	0.954209	-0.623845	-0.658796	-0.142693	-0.615942	0.157329	-0.748080	-0.865983	-0.810902	-0.447830	-0.422250	2.330257	1.612318	-0.908365	-1.114156	-0.486893	0.065011	1.346808	-0.766227	-0.337499	0.658077	0.234579	-4.000130
-130.000000	2.211520	2.622611	-0.807809	0.357533	0.579460	0.738308	1.383233	-0.848511	-0.096787	0.147348	-0.105138	0.945285	-0.841136	-0.436876	-0.085186	-0.359162	0.376921	-0.940576	-1.077944	-0.723304	-0.409267	-0.299773	1.509505	1.694669	-1.114212	-1.147515	-0.494274	0.114095	1.199503	-0.859914	-0.468005	0.522334	0.161780	-4.162103
-129.000000	2.091334	2.417529	-1.027783	0.180302	0.495212	0.588584	0.984663	-1.058298	-0.165124	0.117245	0.151291	0.589013	-1.044610	-0.372573	0.001242	0.361255	0.476938	-1.097364	-1.269794	-0.712564	-0.355955	-0.015973	0.817639	1.490660	-1.306506	-1.204629	-0.496454	0.205170	0.996490	-0.957578	-0.619984	0.336656	0.246039	-4.217171
-128.000000	1.979213	2.163953	-1.154996	-0.016952	0.404628	0.504713	0.444964	-1.168718	-0.320369	0.094974	0.472228	0.063545	-1.158979	-0.537988	0.072514	1.175311	0.391746	-1.161427	-1.369740	-0.828596	-0.293186	0.328121	0.443701	0.961913	-1.415332	-1.273560	-0.477142	0.296748	0.786980	-1.035660	-0.740495	0.148568	0.517869	-4.190363
-127.000000	1.866094	1.981831	-1.124723	-0.140631	0.325781	0.518322	0.085211	-1.114238	-0.418413	0.090140	0.654789	-0.267847	-1.113331	-0.772100	0.111549	1.535355	0.264420	-1.061586	-1.303046	-0.986673	-0.229796	0.593443	0.420014	0.342632	-1.355929	-1.297875	-0.437331	0.376366	0.627828	-1.060517	-0.795385	0.006421	0.716649	-4.123333
-126.000000	1.710346	1.860394	-0.987206	-0.186088	0.248245	0.563220	0.085166	-0.962655	-0.397307	0.080068	0.611671	-0.248004	-0.986722	-0.867903	0.123562	1.250492	0.246066	-0.897696	-1.127345	-1.046670	-0.177591	0.699688	0.779496	-0.097599	-1.183633	-1.232806	-0.371808	0.463174	0.572502	-1.034806	-0.800731	-0.066756	0.668932	-4.060818
-125.000000	1.484590	1.776362	-0.914040	-0.193464	0.164010	0.607499	0.371491	-0.892685	-0.262157	0.050568	0.470287	-0.007785	-0.941908	-0.760093	0.127341	0.729084	0.276202	-0.829117	-1.020274	-0.971719	-0.123572	0.660717	1.520189	-0.213699	-1.066158	-1.102906	-0.291351	0.557980	0.626045	-1.010865	-0.802085	-0.118903	0.316790	-4.050756
-124.000000	1.283041	1.780899	-0.964429	-0.193764	0.093030	0.692191	0.788980	-0.941022	-0.061685	0.022782	0.356803	0.377270	-0.995127	-0.524037	0.132240	0.282601	0.292957	-0.792780	-1.034711	-0.825235	-0.064947	0.513460	2.459988	-0.072372	-1.059109	-0.966886	-0.225269	0.604347	0.686543	-1.042037	-0.843876	-0.242162	-0.180118	-4.058323
-123.000000	1.227110	1.843462	-1.013682	-0.210748	0.043731	0.793230	1.115337	-0.987468	0.089240	0.019295	0.342505	0.768659	-1.028573	-0.313897	0.143170	-0.058583	0.437352	-0.683491	-1.070799	-0.694845	-0.020090	0.351836	3.170326	0.055258	-1.078549	-0.877343	-0.186901	0.570109	0.615865	-1.132221	-0.943209	-0.474123	-0.510961	-4.056654
-122.000000	1.308514	1.910464	-0.987491	-0.267357	0.018581	0.887675	1.275728	-0.970525	0.063964	0.027475	0.432162	1.039047	-0.992226	-0.276096	0.155534	-0.207153	0.837677	-0.617180	-1.067616	-0.644075	0.001012	0.288384	3.299502	0.065093	-1.074766	-0.849063	-0.174115	0.506127	0.445986	-1.257096	-1.082907	-0.760225	-0.689930	-4.088992
-121.000000	1.446485	2.007596	-0.928650	-0.343235	0.017021	0.924414	1.339062	-0.921082	-0.117531	0.024378	0.451266	1.218985	-0.931427	-0.387044	0.153342	-0.161702	1.349459	-0.737576	-1.054619	-0.659083	0.003745	0.342090	2.767597	0.092849	-1.071919	-0.844607	-0.170363	0.466542	0.285616	-1.365576	-1.188576	-0.979796	-0.936891	-4.106619
-120.000000	1.546683	2.078264	-0.920123	-0.386502	0.020155	0.809444	1.237785	-0.910391	-0.303268	0.010338	0.331294	1.190162	-0.921046	-0.520866	0.144300	0.034669	1.568448	-0.993283	-1.087064	-0.669059	-0.002512	0.498670	1.669511	0.154737	-1.107849	-0.807901	-0.164455	0.446062	0.092869	-1.411204	-1.220784	-1.102422	-1.098622	-4.028427
-119.000000	1.498075	2.008616	-1.019141	-0.404650	0.022584	0.601467	0.968607	-1.013661	-0.414278	-0.012667	0.230655	0.875142	-1.031078	-0.616459	0.141295	0.350807	1.330376	-1.226687	-1.211746	-0.644906	-0.010329	0.740937	0.376568	0.164656	-1.220755	-0.718003	-0.163879	0.443835	-0.189743	-1.390878	-1.204457	-1.177968	-0.952918	-3.891428
-118.000000	1.279982	1.771877	-1.182746	-0.421487	0.050644	0.443374	0.672867	-1.202250	-0.441545	-0.039234	0.202549	0.485089	-1.217229	-0.618437	0.132591	0.572798	0.987237	-1.362272	-1.389007	-0.638785	-0.033863	0.916611	-0.628693	0.145108	-1.376957	-0.699129	-0.183235	0.432713	-0.498921	-1.336714	-1.155656	-1.184437	-0.658758	-3.787501
-117.000000	1.002186	1.457691	-1.308297	-0.403154	0.127316	0.376671	0.455881	-1.342320	-0.371132	-0.040015	0.153255	0.286192	-1.344737	-0.457194	0.105744	0.441809	0.948758	-1.452431	-1.491428	-0.642246	-0.090028	0.830047	-1.221354	0.030856	-1.465318	-0.846666	-0.233061	0.332665	-0.789721	-1.297621	-1.105559	-1.136222	-0.443550	-3.769549
-116.000000	0.738263	1.209506	-1.375832	-0.372423	0.210003	0.329950	0.327187	-1.396498	-0.279831	-0.021336	0.099719	0.331550	-1.395662	-0.231677	0.082869	0.083521	1.238398	-1.543208	-1.501210	-0.599327	-0.146593	0.575159	-1.624119	-0.277677	-1.475787	-1.019991	-0.292872	0.164897	-1.098038	-1.291202	-1.097809	-1.155436	-0.379975	-3.773608
-115.000000	0.455083	1.100858	-1.412898	-0.385516	0.271003	0.319060	0.286556	-1.417858	-0.269960	0.005490	0.139590	0.496417	-1.421627	-0.182068	0.083244	-0.146942	1.595434	-1.666668	-1.489918	-0.611876	-0.184795	0.371684	-2.086342	-0.770885	-1.466817	-1.134996	-0.354246	-0.016390	-1.432515	-1.330965	-1.172311	-1.319644	-0.541744	-3.699160
-114.000000	0.149831	1.091884	-1.399475	-0.420167	0.330649	0.409425	0.354728	-1.400069	-0.307267	0.058268	0.275613	0.624501	-1.406178	-0.383578	0.088309	-0.137088	1.803693	-1.816924	-1.459716	-0.764672	-0.221349	0.273464	-2.682293	-1.463182	-1.435346	-1.234837	-0.418959	-0.194582	-1.697859	-1.397488	-1.292469	-1.514194	-0.854948	-3.557213
-113.000000	-0.075045	1.093724	-1.339150	-0.439623	0.364008	0.515801	0.435734	-1.340600	-0.315767	0.115396	0.430420	0.590014	-1.341982	-0.658098	0.079871	0.026005	1.719470	-1.864433	-1.402056	-0.948691	-0.242866	0.254111	-3.303771	-2.149957	-1.383835	-1.281968	-0.443879	-0.325078	-1.777522	-1.430264	-1.359456	-1.569699	-1.019744	-3.413874
-112.000000	-0.122085	1.062787	-1.256676	-0.430854	0.348896	0.581260	0.447095	-1.271510	-0.298447	0.138546	0.498854	0.480277	-1.256671	-0.812612	0.056391	0.158304	1.302349	-1.805200	-1.336564	-1.030457	-0.235430	0.250845	-3.805168	-2.423916	-1.327363	-1.219355	-0.405287	-0.399517	-1.658517	-1.389188	-1.320925	-1.463236	-1.048177	-3.295963
-111.000000	-0.006245	0.981269	-1.188444	-0.395217	0.301005	0.659141	0.491375	-1.220485	-0.301663	0.128822	0.433958	0.510627	-1.192721	-0.837389	0.025326	0.091018	0.780228	-1.774689	-1.282352	-0.987847	-0.210440	0.193693	-4.044535	-2.194910	-1.281659	-1.084465	-0.326331	-0.463210	-1.431247	-1.252437	-1.179178	-1.256168	-1.130724	-3.214500
-110.000000	0.185372	0.860242	-1.148453	-0.366981	0.229267	0.732966	0.621636	-1.178172	-0.342133	0.108181	0.292054	0.647039	-1.159952	-0.799445	-0.006004	-0.132993	0.343135	-1.765364	-1.239567	-0.881197	-0.178089	0.103352	-3.854407	-1.661496	-1.248977	-0.934819	-0.223264	-0.505387	-1.154769	-1.046641	-0.983081	-1.008121	-1.174612	-3.154779
-109.000000	0.341735	0.743509	-1.090646	-0.392624	0.140693	0.741860	0.687038	-1.108479	-0.395271	0.085715	0.178051	0.637978	-1.108156	-0.738779	-0.025949	-0.307994	-0.063222	-1.650988	-1.183866	-0.779716	-0.142370	0.063979	-3.111881	-1.065721	-1.198801	-0.799381	-0.114744	-0.466966	-0.802188	-0.839937	-0.786916	-0.779011	-1.121124	-3.058934
-108.000000	0.393442	0.647402	-1.003299	-0.428466	0.041345	0.671111	0.571924	-1.024678	-0.411075	0.058333	0.143451	0.394510	-1.014841	-0.670854	-0.026969	-0.296342	-0.392674	-1.432564	-1.107416	-0.708238	-0.115816	0.058025	-1.889269	-0.648634	-1.122782	-0.703762	-0.014376	-0.389739	-0.390140	-0.688842	-0.607114	-0.611555	-1.103591	-2.987207
-107.000000	0.373270	0.579936	-0.910531	-0.381941	-0.046386	0.533524	0.353135	-0.946669	-0.347494	0.030870	0.110057	0.067178	-0.900938	-0.534265	-0.029517	-0.218333	-0.480287	-1.196047	-1.017577	-0.611532	-0.108327	-0.031438	-0.542437	-0.501016	-1.023917	-0.612271	0.075903	-0.375094	-0.053980	-0.585192	-0.454486	-0.507837	-1.187290	-3.029663
-106.000000	0.318211	0.536734	-0.859557	-0.284120	-0.108843	0.350678	0.100096	-0.893423	-0.238564	-0.001328	0.002453	-0.233388	-0.827357	-0.284969	-0.032585	-0.218576	-0.369434	-0.946450	-0.941136	-0.433046	-0.100838	-0.200094	0.510292	-0.497165	-0.946442	-0.474117	0.141429	-0.420562	0.115211	-0.475990	-0.336470	-0.429407	-1.259201	-3.082013
-105.000000	0.212729	0.472068	-0.869341	-0.222246	-0.153942	0.136629	-0.196293	-0.879321	-0.165609	-0.049601	-0.087951	-0.552935	-0.820468	-0.032950	-0.012066	-0.161468	-0.385160	-0.801240	-0.904061	-0.223471	-0.082030	-0.332788	1.039880	-0.534549	-0.924941	-0.325630	0.166008	-0.471835	0.105795	-0.362239	-0.251695	-0.390620	-1.204151	-3.067779
-104.000000	0.113020	0.395838	-0.845705	-0.185599	-0.153782	-0.059383	-0.394163	-0.843611	-0.147360	-0.089849	-0.090756	-0.780200	-0.791836	0.049230	0.016902	-0.020275	-0.571588	-0.833852	-0.857019	-0.113519	-0.066553	-0.420587	1.086878	-0.609566	-0.884251	-0.233191	0.136880	-0.508983	-0.080673	-0.261118	-0.210458	-0.446975	-1.101502	-3.036133
-103.000000	0.106249	0.370210	-0.740467	-0.129855	-0.097897	-0.172358	-0.343602	-0.755113	-0.132547	-0.097234	-0.106749	-0.725895	-0.701551	-0.028945	0.024654	-0.087364	-0.544442	-0.900510	-0.750898	-0.140763	-0.063425	-0.514899	0.886173	-0.720642	-0.782701	-0.197062	0.073242	-0.511259	-0.378517	-0.167249	-0.198233	-0.547058	-1.112005	-3.009510
-102.000000	0.192433	0.368737	-0.630016	-0.066506	-0.026637	-0.238769	-0.202405	-0.670829	-0.070786	-0.082768	-0.207777	-0.515327	-0.615495	-0.039057	0.014625	-0.405181	-0.208071	-0.927795	-0.627846	-0.174417	-0.082240	-0.583598	0.504415	-0.979235	-0.669986	-0.160927	0.012012	-0.504490	-0.739927	-0.117157	-0.218448	-0.651272	-1.152681	-2.968378
-101.000000	0.304576	0.360172	-0.568872	-0.016798	0.044267	-0.296213	-0.184294	-0.632523	0.035753	-0.061323	-0.319132	-0.370399	-0.575528	0.099717	-0.002005	-0.671080	0.283098	-0.930730	-0.556258	-0.119717	-0.123084	-0.581443	-0.201209	-1.409719	-0.597779	-0.100669	-0.042262	-0.547327	-1.096487	-0.147812	-0.307504	-0.801073	-1.033350	-2.859355
-100.000000	0.315915	0.324628	-0.578213	0.015943	0.114824	-0.327603	-0.334867	-0.650078	0.127327	-0.031630	-0.309931	-0.422019	-0.598695	0.220898	-0.024128	-0.614052	0.681234	-1.001921	-0.575193	-0.048394	-0.157245	-0.486241	-1.214726	-1.848771	-0.612425	-0.049757	-0.090696	-0.616126	-1.338411	-0.233094	-0.436656	-0.987359	-0.806418	-2.666357
-99.000000	0.171557	0.231007	-0.707831	-0.013500	0.159988	-0.367526	-0.659807	-0.757863	0.129648	0.001995	-0.119233	-0.777974	-0.729492	0.235560	-0.037901	-0.142330	0.616727	-1.153478	-0.711236	-0.028687	-0.161703	-0.318533	-2.276659	-2.234236	-0.758028	-0.028713	-0.122087	-0.685775	-1.506307	-0.316331	-0.558409	-1.179170	-0.522528	-2.391455
-98.000000	-0.009482	0.167591	-0.931048	-0.115352	0.176945	-0.395718	-1.036229	-0.959991	0.027302	0.037789	0.207672	-1.362438	-0.961440	0.189164	-0.045523	0.527797	0.042872	-1.212008	-0.942467	-0.037355	-0.151018	-0.220447	-3.101007	-2.477555	-1.002666	-0.030718	-0.131422	-0.834147	-1.738768	-0.335385	-0.629075	-1.326613	-0.241750	-2.092748
-97.000000	-0.159548	0.197014	-1.123903	-0.201348	0.183354	-0.368544	-1.242792	-1.149540	-0.059660	0.073771	0.432302	-1.856177	-1.175062	0.177723	-0.063142	0.925018	-0.828075	-1.119794	-1.148195	-0.017815	-0.143342	-0.260413	-3.498325	-2.405670	-1.198096	-0.020410	-0.120212	-1.062558	-2.040022	-0.252968	-0.589982	-1.352945	-0.200283	-1.895993
-96.000000	-0.328265	0.242474	-1.230414	-0.229474	0.169407	-0.306269	-1.230674	-1.240466	-0.031280	0.097086	0.332223	-1.932420	-1.281582	0.241616	-0.082198	0.744683	-1.645976	-1.002630	-1.251959	0.039955	-0.127061	-0.279487	-3.334629	-2.022964	-1.279377	0.003511	-0.087209	-1.162271	-2.164349	-0.123092	-0.464716	-1.247351	-0.409845	-1.808932
-95.000000	-0.432836	0.256046	-1.174794	-0.192383	0.129386	-0.223154	-1.035017	-1.178372	0.060496	0.112259	-0.056014	-1.502513	-1.213539	0.289814	-0.094527	0.087372	-1.959880	-0.960282	-1.223817	0.069408	-0.090640	-0.233347	-2.669668	-1.452888	-1.236822	0.018119	-0.034860	-1.009549	-1.844884	0.008222	-0.297478	-1.019836	-0.616213	-1.715866
-94.000000	-0.369828	0.233781	-0.901076	-0.087999	0.087858	-0.140039	-0.698980	-0.921025	0.181051	0.117823	-0.570656	-0.864218	-0.936575	0.316562	-0.105420	-0.699313	-1.727805	-0.945122	-1.003836	0.074244	-0.046100	-0.318530	-1.919052	-0.925623	-1.013104	0.060670	0.017563	-0.771813	-1.182147	0.180804	-0.083463	-0.687706	-0.595059	-1.525972
-93.000000	-0.229836	0.092090	-0.541307	0.013991	0.048464	-0.118194	-0.495643	-0.557765	0.332195	0.099346	-0.947949	-0.534513	-0.566887	0.368967	-0.104790	-1.172792	-1.373807	-0.881830	-0.639523	0.106386	-0.006828	-0.582569	-1.538021	-0.662548	-0.656021	0.144496	0.056327	-0.606138	-0.587334	0.399372	0.143933	-0.361394	-0.325652	-1.310197
-92.000000	-0.110765	-0.229398	-0.188669	0.045862	-0.025084	-0.211677	-0.624316	-0.181460	0.437505	0.052492	-1.049862	-0.662678	-0.188818	0.347680	-0.087090	-1.127754	-1.237149	-0.727953	-0.231683	0.133187	0.039997	-0.800396	-1.531893	-0.607403	-0.243842	0.252889	0.112173	-0.404437	-0.324057	0.642375	0.388873	-0.088773	0.044182	-1.170081
-91.000000	-0.045525	-0.612472	0.122794	0.004568	-0.142351	-0.343923	-0.904820	0.157132	0.413219	-0.007246	-0.983525	-0.972603	0.160519	0.194390	-0.074243	-0.803812	-1.299312	-0.472675	0.147335	0.121528	0.109683	-0.781050	-1.524360	-0.572521	0.156815	0.375868	0.216594	-0.039010	-0.283861	0.894421	0.676180	0.180742	0.402456	-1.049234
-90.000000	-0.024697	-0.890658	0.329301	-0.032549	-0.226878	-0.355031	-1.112102	0.388991	0.299951	-0.049355	-0.852637	-1.186570	0.408518	0.021557	-0.079202	-0.577996	-1.308596	-0.207380	0.428828	0.108742	0.167949	-0.695337	-1.108519	-0.444782	0.468182	0.489650	0.306080	0.157042	-0.184930	1.098881	0.909833	0.410306	0.596369	-0.919901
-89.000000	0.014990	-0.966564	0.443295	0.002156	-0.215638	-0.235977	-1.161496	0.500237	0.204532	-0.055243	-0.694464	-1.176098	0.536704	-0.028380	-0.091441	-0.544896	-1.125656	-0.054497	0.600993	0.142917	0.186946	-0.804201	-0.227099	-0.241816	0.669072	0.593733	0.307080	-0.148722	0.086831	1.213629	1.021444	0.578718	0.563837	-0.818435
-88.000000	0.053919	-0.865151	0.485051	0.056424	-0.162592	-0.144988	-1.053476	0.520455	0.143801	-0.044684	-0.519027	-1.007054	0.562979	0.071099	-0.105513	-0.550839	-0.843376	0.001942	0.675423	0.237270	0.191509	-1.000584	0.715412	-0.066652	0.755809	0.699637	0.268105	-0.602152	0.426105	1.254434	1.054259	0.746075	0.488889	-0.688100
-87.000000	0.016579	-0.732468	0.430412	0.042461	-0.115655	-0.121149	-0.852842	0.442753	0.054815	-0.055111	-0.357950	-0.833933	0.490135	0.185115	-0.133882	-0.550463	-0.504652	0.085744	0.635901	0.323782	0.186527	-1.061954	1.391229	0.102072	0.715319	0.774739	0.249537	-0.787465	0.735844	1.264644	1.057999	0.901038	0.420078	-0.517200
-86.000000	-0.030414	-0.572995	0.338567	-0.027697	-0.067899	-0.089168	-0.613965	0.321050	-0.087703	-0.084414	-0.357379	-0.689311	0.382386	0.152515	-0.169404	-0.647002	-0.132315	0.319228	0.551411	0.289569	0.152684	-1.001737	1.740007	0.338075	0.620703	0.784194	0.237303	-0.752124	0.913540	1.283599	1.048749	0.952084	0.265171	-0.406801
-85.000000	0.045127	-0.301303	0.301545	-0.049873	-0.008648	-0.066488	-0.375922	0.268635	-0.196327	-0.105619	-0.544774	-0.551570	0.336250	-0.014451	-0.197705	-0.848300	0.141132	0.680505	0.520084	0.111509	0.082408	-0.971292	1.767754	0.528134	0.573535	0.714489	0.206353	-0.718452	0.852940	1.265542	0.975272	0.826727	0.091601	-0.433804
-84.000000	0.170587	0.012759	0.263761	-0.001549	0.049379	-0.119029	-0.207798	0.234306	-0.167280	-0.107515	-0.708271	-0.444252	0.304868	-0.122368	-0.211268	-0.946577	0.175497	0.949638	0.486845	-0.095844	-0.003130	-0.949913	1.552406	0.558263	0.530570	0.578212	0.161888	-0.733326	0.598560	1.152044	0.802502	0.545658	-0.052398	-0.521907
-83.000000	0.207607	0.211928	0.166555	0.021464	0.071376	-0.231665	-0.135101	0.142379	-0.112572	-0.100209	-0.776210	-0.377309	0.220298	-0.162902	-0.200221	-0.921811	-0.156874	0.969543	0.387720	-0.223554	-0.065969	-0.781765	1.237032	0.428177	0.425136	0.425697	0.128844	-0.670164	0.313727	0.992862	0.598570	0.215025	-0.191131	-0.537947
-82.000000	0.195437	0.215204	0.087423	0.013672	0.076695	-0.330345	-0.105348	0.079938	-0.166110	-0.086945	-0.819697	-0.344939	0.145154	-0.284141	-0.175167	-1.016355	-0.749449	0.756828	0.286060	-0.259393	-0.102253	-0.564725	0.972998	0.234569	0.309828	0.293330	0.098472	-0.534801	0.131870	0.794629	0.375349	-0.123654	-0.289698	-0.526174
-81.000000	0.187036	0.099101	0.037101	0.065218	0.097102	-0.406883	-0.105712	0.053474	-0.155910	-0.062317	-0.834626	-0.334997	0.088875	-0.302437	-0.139126	-1.193884	-1.172475	0.418888	0.196596	-0.178998	-0.126718	-0.544251	0.827959	0.067852	0.208640	0.213318	0.042024	-0.469578	0.052608	0.489747	0.060247	-0.553566	-0.378438	-0.501989
-80.000000	0.137544	0.002558	-0.074946	0.129478	0.109956	-0.481919	-0.202962	-0.039624	-0.010537	-0.024999	-0.768391	-0.399806	-0.029511	-0.122269	-0.092196	-1.135677	-1.240129	0.110374	0.055504	-0.029879	-0.123966	-0.665900	0.786572	-0.127520	0.071111	0.203650	-0.017759	-0.497208	0.006169	0.150330	-0.264256	-1.014551	-0.435051	-0.293283
-79.000000	0.003851	-0.023225	-0.237310	0.090928	0.068033	-0.567692	-0.403981	-0.178777	0.072423	0.010170	-0.607192	-0.572148	-0.194683	0.002000	-0.050329	-0.795817	-1.128143	-0.046957	-0.089338	0.064763	-0.068209	-0.708961	0.894370	-0.247913	-0.067709	0.257445	-0.017704	-0.496172	0.014669	-0.011156	-0.383377	-1.216374	-0.336371	0.130929
-78.000000	-0.189570	-0.025255	-0.327817	-0.057453	-0.038975	-0.646631	-0.577263	-0.250536	0.007247	0.012377	-0.434143	-0.686787	-0.291516	0.014088	-0.020618	-0.493616	-0.975713	-0.038259	-0.136069	0.118930	0.027399	-0.631922	1.226590	-0.145536	-0.108304	0.370457	0.059593	-0.395222	0.105025	0.077211	-0.239653	-1.018754	-0.134174	0.599616
-77.000000	-0.379399	-0.054741	-0.311621	-0.248987	-0.161582	-0.648434	-0.606395	-0.226459	-0.147588	-0.012889	-0.262777	-0.641926	-0.288747	0.020166	-0.006087	-0.352739	-0.875605	0.038240	-0.100859	0.201094	0.133951	-0.487032	1.650730	0.065791	-0.065585	0.488204	0.167669	-0.236764	0.149088	0.261617	0.004289	-0.598479	0.006675	0.992288
-76.000000	-0.551981	-0.143568	-0.263394	-0.404671	-0.271629	-0.601471	-0.563288	-0.183543	-0.295391	-0.045598	-0.000009	-0.609570	-0.253589	0.005681	0.004844	-0.125066	-0.878294	0.092987	-0.060564	0.270581	0.229815	-0.251259	1.873113	0.212203	-0.039319	0.514692	0.266786	-0.060599	0.065983	0.378537	0.183308	-0.209782	0.076726	1.324683
-75.000000	-0.711075	-0.299293	-0.192374	-0.475243	-0.374743	-0.548622	-0.489988	-0.142743	-0.391010	-0.084349	0.276199	-0.628536	-0.187408	-0.106171	0.029066	0.312718	-0.986614	0.174923	-0.022077	0.233243	0.289860	0.086654	1.762231	0.184468	-0.029572	0.441285	0.345677	0.148233	-0.058410	0.396482	0.270670	0.026609	0.175489	1.652448
-74.000000	-0.815813	-0.466254	-0.087499	-0.450170	-0.448915	-0.466491	-0.359128	-0.077554	-0.434737	-0.109952	0.458140	-0.554464	-0.083519	-0.298050	0.052096	0.793663	-1.180957	0.334748	0.023219	0.080642	0.305670	0.426871	1.405113	0.083158	-0.005097	0.351466	0.396819	0.378780	-0.155503	0.361080	0.304713	0.152656	0.205520	1.881170
-73.000000	-0.833269	-0.582148	-0.033807	-0.365361	-0.471706	-0.406118	-0.281574	-0.046944	-0.431239	-0.110058	0.593792	-0.386340	-0.028985	-0.471229	0.051826	1.135734	-1.143666	0.449482	0.012780	-0.090999	0.287796	0.655775	0.957371	0.104316	-0.021203	0.287072	0.419880	0.565183	-0.210155	0.319825	0.321820	0.249843	-0.004169	1.876871
-72.000000	-0.804050	-0.691375	-0.109171	-0.276041	-0.455634	-0.392662	-0.270429	-0.129312	-0.408424	-0.114832	0.642971	-0.148040	-0.104977	-0.572966	0.033103	1.224799	-0.613720	0.339252	-0.101610	-0.203704	0.246887	0.742171	0.532339	0.207331	-0.129311	0.219549	0.422530	0.661599	-0.197470	0.264612	0.316336	0.315545	-0.360822	1.709619
-71.000000	-0.793747	-0.852219	-0.241774	-0.220142	-0.429696	-0.402806	-0.263217	-0.263378	-0.375200	-0.128943	0.548055	0.058307	-0.248581	-0.601571	0.011819	1.146245	0.004158	-0.019923	-0.238264	-0.247065	0.202487	0.747795	0.146621	0.266110	-0.249283	0.149880	0.417878	0.673210	-0.147655	0.155074	0.253558	0.293855	-0.650221	1.498066
-70.000000	-0.842745	-1.041668	-0.365695	-0.273248	-0.413299	-0.435549	-0.356574	-0.385960	-0.372336	-0.138626	0.405799	-0.023032	-0.378672	-0.584924	-0.002604	1.162645	0.266493	-0.546031	-0.331536	-0.244749	0.185980	0.776724	-0.138368	0.370927	-0.317399	0.098703	0.415903	0.650595	-0.112691	0.028129	0.163583	0.195079	-0.780429	1.263452
-69.000000	-0.967110	-1.179024	-0.528470	-0.456478	-0.397012	-0.451036	-0.492280	-0.543964	-0.434366	-0.166177	0.259117	-0.293634	-0.532858	-0.529614	-0.013169	1.125448	0.218974	-1.119942	-0.431744	-0.200838	0.194803	0.783217	-0.226738	0.560139	-0.399064	0.075114	0.410181	0.612138	-0.112314	-0.049598	0.093738	0.079990	-0.794667	0.997601
-68.000000	-1.114449	-1.167963	-0.748955	-0.653781	-0.355750	-0.395400	-0.418625	-0.749864	-0.509089	-0.196542	0.011169	-0.329109	-0.738285	-0.415128	-0.038579	0.553791	0.061937	-1.547236	-0.581004	-0.099029	0.200483	0.582085	-0.174670	0.596480	-0.535663	0.097243	0.394328	0.511571	-0.168045	-0.087100	0.033941	-0.040153	-0.846220	0.739227
-67.000000	-1.251794	-1.065890	-0.971808	-0.788070	-0.296326	-0.310840	-0.177795	-0.958201	-0.558844	-0.202467	-0.307812	-0.111112	-0.952399	-0.281401	-0.070579	-0.396680	0.007053	-1.683203	-0.756857	0.025498	0.194358	0.221952	-0.151884	0.315322	-0.700738	0.132617	0.366905	0.363608	-0.262537	-0.128330	-0.041431	-0.154663	-1.002987	0.616946
-66.000000	-1.413314	-1.049397	-1.118813	-0.866655	-0.249496	-0.298771	-0.102813	-1.113041	-0.598623	-0.180943	-0.459060	-0.032238	-1.112028	-0.212989	-0.072676	-0.923900	0.050758	-1.552898	-0.902388	0.074956	0.179787	-0.015535	-0.349550	-0.287500	-0.846578	0.108852	0.322171	0.226775	-0.404134	-0.195773	-0.138046	-0.238605	-1.053811	0.710838
-65.000000	-1.604913	-1.160104	-1.229888	-0.910110	-0.226254	-0.388498	-0.315635	-1.236492	-0.646039	-0.107914	-0.291372	-0.278833	-1.235430	-0.277253	-0.035479	-0.551209	-0.102537	-1.314660	-1.036435	-0.019723	0.173028	0.029553	-0.748202	-1.054674	-0.993398	0.000130	0.261732	0.128370	-0.634986	-0.303320	-0.255870	-0.304607	-0.907270	0.946032
-64.000000	-1.770979	-1.277210	-1.361438	-0.954706	-0.223377	-0.519620	-0.586138	-1.354925	-0.722750	-0.001277	0.067292	-0.592653	-1.342513	-0.476078	0.014648	0.391747	-0.385682	-1.144356	-1.174360	-0.211575	0.193632	0.298132	-1.028423	-1.649280	-1.143861	-0.142205	0.208729	0.106420	-0.863487	-0.404704	-0.359684	-0.322361	-0.707805	1.144973
-63.000000	-1.821813	-1.341635	-1.414824	-0.992392	-0.221414	-0.575694	-0.761920	-1.389163	-0.790130	0.087466	0.363358	-0.695783	-1.358074	-0.670143	0.040343	1.149703	-0.365131	-1.051008	-1.232935	-0.370601	0.232244	0.612782	-0.959902	-1.841403	-1.217193	-0.240784	0.181071	0.181042	-0.934519	-0.432447	-0.394730	-0.251926	-0.441843	1.182111
-62.000000	-1.781822	-1.400525	-1.333125	-0.975551	-0.195123	-0.497185	-0.911286	-1.316728	-0.751386	0.134648	0.449195	-0.689220	-1.276024	-0.661172	0.035343	1.271338	-0.106328	-0.921747	-1.189719	-0.380830	0.262462	0.800908	-0.624941	-1.686669	-1.198610	-0.257090	0.159780	0.281347	-0.844361	-0.426707	-0.389984	-0.147346	-0.079904	1.115321
-61.000000	-1.767650	-1.479595	-1.204854	-0.900178	-0.152039	-0.392954	-1.023044	-1.214456	-0.598035	0.149342	0.345046	-0.715296	-1.181954	-0.410449	0.025158	0.913711	-0.112664	-0.720265	-1.112887	-0.220596	0.283023	0.820565	-0.266643	-1.444641	-1.132257	-0.180685	0.126881	0.318072	-0.705824	-0.431253	-0.396745	-0.096393	0.152677	1.058177
-60.000000	-1.782423	-1.556131	-1.076160	-0.775012	-0.127879	-0.386810	-0.963591	-1.092404	-0.398914	0.151818	0.137809	-0.664222	-1.084861	-0.078514	0.022497	0.383897	-0.519963	-0.485018	-1.009112	0.013440	0.297291	0.731981	-0.107275	-1.258181	-1.027989	-0.035641	0.105381	0.291559	-0.562052	-0.403606	-0.407402	-0.158626	0.151818	1.044586
-59.000000	-1.773448	-1.575362	-0.926856	-0.626460	-0.146488	-0.433998	-0.712902	-0.928028	-0.226930	0.142807	-0.078462	-0.440663	-0.951600	0.130448	0.031316	-0.172884	-0.874115	-0.337458	-0.853414	0.172353	0.295203	0.594961	-0.179271	-1.037753	-0.878501	0.098643	0.115172	0.273322	-0.343713	-0.343630	-0.406919	-0.300522	0.078171	1.056522
-58.000000	-1.756696	-1.511759	-0.770793	-0.508427	-0.180475	-0.429917	-0.448661	-0.751784	-0.114141	0.117587	-0.182381	-0.164285	-0.803793	0.148266	0.051427	-0.525597	-0.766552	-0.359623	-0.685278	0.188259	0.277273	0.435253	-0.357887	-0.793295	-0.702690	0.159496	0.129048	0.270657	-0.056156	-0.329368	-0.416405	-0.434291	-0.049854	1.101639
-57.000000	-1.745861	-1.380003	-0.638627	-0.424546	-0.197251	-0.364276	-0.312453	-0.595526	-0.009492	0.089639	-0.129556	-0.026371	-0.656988	0.107603	0.076353	-0.490775	-0.421999	-0.460998	-0.544972	0.146825	0.260318	0.260951	-0.568759	-0.709410	-0.536258	0.166117	0.120898	0.218321	0.125338	-0.386615	-0.441198	-0.521482	-0.260561	1.193743
-56.000000	-1.724208	-1.216818	-0.548157	-0.348413	-0.206244	-0.276862	-0.257642	-0.490088	0.168333	0.084572	-0.035777	-0.022047	-0.531572	0.214398	0.094870	-0.296793	-0.207644	-0.489728	-0.444902	0.189218	0.258012	0.121654	-0.816416	-0.819758	-0.407581	0.186886	0.111375	0.119918	0.072753	-0.438699	-0.429890	-0.547950	-0.450430	1.361753
-55.000000	-1.675671	-1.050606	-0.430557	-0.272623	-0.204225	-0.174542	-0.176185	-0.393740	0.395522	0.085142	-0.020813	0.049544	-0.396689	0.455725	0.095293	-0.315761	-0.084551	-0.343663	-0.332267	0.318461	0.253941	0.038322	-1.159848	-0.896139	-0.285522	0.242993	0.108933	0.022284	-0.126560	-0.408198	-0.353956	-0.467439	-0.573128	1.656147
-54.000000	-1.541972	-0.838305	-0.185222	-0.198117	-0.160444	-0.074463	-0.032414	-0.193132	0.528495	0.062649	-0.061628	0.294644	-0.154459	0.555531	0.083903	-0.538044	0.030662	-0.094714	-0.120170	0.374113	0.230411	-0.003114	-1.684631	-0.777397	-0.089085	0.269463	0.076541	-0.048506	-0.352941	-0.311231	-0.243731	-0.277018	-0.587412	2.033690
-53.000000	-1.316263	-0.576767	0.117588	-0.132618	-0.075269	-0.029199	0.104287	0.079947	0.497659	0.042684	-0.045150	0.557161	0.135702	0.395092	0.074980	-0.590117	0.084903	0.049280	0.123604	0.264328	0.178546	0.094179	-2.340192	-0.626886	0.142082	0.199259	0.000288	-0.063520	-0.597079	-0.251644	-0.196008	-0.124831	-0.410482	2.376180
-52.000000	-1.109341	-0.390157	0.292770	-0.078913	0.007680	-0.075618	0.110770	0.246067	0.374945	0.048485	0.073731	0.583985	0.290710	0.150735	0.076697	-0.216987	0.115530	-0.015022	0.244353	0.077301	0.113474	0.399525	-2.902560	-0.694527	0.257476	0.059146	-0.084378	-0.002247	-0.810642	-0.296430	-0.276494	-0.127624	-0.208073	2.562659
-51.000000	-1.001323	-0.340647	0.245714	-0.037890	0.064506	-0.159604	0.035408	0.200579	0.250392	0.061508	0.224710	0.429296	0.235936	-0.040411	0.075073	0.378970	0.238362	-0.228119	0.186236	-0.086223	0.069088	0.717079	-3.118436	-0.977208	0.191143	-0.074388	-0.139579	0.080694	-0.885005	-0.388387	-0.405970	-0.191477	-0.268059	2.480208
-50.000000	-0.968725	-0.419939	0.064295	-0.004585	0.101349	-0.188379	0.028997	0.038762	0.161353	0.055387	0.314311	0.358249	0.066921	-0.150029	0.055157	0.764630	0.479133	-0.509623	0.035199	-0.175972	0.047730	0.773594	-2.826413	-1.284430	0.027174	-0.147542	-0.156506	0.092911	-0.795775	-0.405052	-0.455874	-0.161954	-0.613272	2.139319
-49.000000	-0.922651	-0.577778	-0.029326	0.071291	0.134790	-0.148565	0.106679	-0.020113	0.123781	0.035453	0.294315	0.428380	-0.016231	-0.140719	0.028736	0.740886	0.641044	-0.746440	-0.024867	-0.161811	0.032569	0.552324	-2.079036	-1.488902	-0.049478	-0.144727	-0.163526	0.026764	-0.662143	-0.333892	-0.426474	-0.087253	-0.928861	1.780041
-48.000000	-0.827000	-0.657679	0.030418	0.180971	0.178544	-0.134550	0.131631	0.066886	0.123560	0.019544	0.240388	0.452554	0.039943	-0.046200	0.013014	0.525176	0.592190	-0.830608	0.048391	-0.082794	0.023299	0.252817	-1.089982	-1.537163	0.017319	-0.104691	-0.191558	-0.077508	-0.582021	-0.345011	-0.467802	-0.189843	-0.876672	1.586994
-47.000000	-0.777712	-0.630596	0.065097	0.220478	0.206937	-0.213223	-0.031037	0.107537	0.110771	0.004315	0.312259	0.266297	0.066801	0.079947	0.018255	0.475996	0.501391	-0.853222	0.093153	0.018694	0.028128	0.066265	-0.077725	-1.373639	0.065360	-0.074242	-0.225192	-0.162716	-0.458364	-0.527604	-0.634363	-0.494446	-0.511360	1.496442
-46.000000	-0.825306	-0.622988	0.023730	0.155303	0.182883	-0.297021	-0.260332	0.048136	0.077570	-0.018882	0.408380	0.014537	0.018780	0.278257	0.036188	0.466789	0.453586	-0.863563	0.070436	0.182232	0.043100	0.014338	0.675313	-0.951323	0.040207	-0.007266	-0.219071	-0.154166	-0.180315	-0.713689	-0.757601	-0.705577	-0.143654	1.505100
-45.000000	-0.892331	-0.734316	0.046197	0.059788	0.115358	-0.312710	-0.350394	0.042074	0.079401	-0.055914	0.279297	-0.089085	0.033244	0.545189	0.040376	0.134588	0.311743	-0.692094	0.131673	0.424219	0.065638	-0.087006	0.967066	-0.326580	0.089096	0.173474	-0.155734	-0.103434	0.172264	-0.724995	-0.667872	-0.583415	0.043108	1.709922
-44.000000	-0.899689	-0.926393	0.216288	0.024361	0.034876	-0.296003	-0.245690	0.194167	0.140867	-0.101572	-0.004330	-0.030591	0.197375	0.726840	0.020537	-0.300392	0.123078	-0.257061	0.349312	0.629481	0.083344	-0.338617	0.967608	0.318937	0.299702	0.398652	-0.055413	-0.116337	0.453108	-0.559427	-0.388982	-0.181793	0.026227	2.068371
-43.000000	-0.848878	-1.098092	0.532417	0.055868	-0.053000	-0.287477	-0.059225	0.501154	0.203936	-0.137185	-0.247705	0.095822	0.507335	0.686971	-0.006699	-0.440203	0.084851	0.325942	0.673614	0.664361	0.091597	-0.575396	0.975429	0.797691	0.635408	0.542433	0.059699	-0.150511	0.604837	-0.292233	-0.049096	0.311746	-0.169625	2.458586
-42.000000	-0.813167	-1.253953	0.897137	0.094454	-0.145594	-0.231841	0.069245	0.861984	0.235547	-0.164998	-0.394308	0.217889	0.869158	0.504662	-0.031189	-0.433597	0.159401	0.832713	1.006879	0.559367	0.103884	-0.650658	1.127874	1.082462	1.000592	0.587595	0.176783	-0.104226	0.687350	-0.016319	0.257447	0.720408	-0.398328	2.802461
-41.000000	-0.848842	-1.417410	1.163621	0.109697	-0.231380	-0.103810	0.133917	1.135023	0.259995	-0.206058	-0.462917	0.349909	1.150398	0.351282	-0.051935	-0.562896	0.229565	1.030626	1.239799	0.449734	0.120224	-0.579127	1.410825	1.331629	1.277023	0.575220	0.283314	0.052506	0.792481	0.196967	0.482529	0.955160	-0.522086	3.048409
-40.000000	-0.948024	-1.547360	1.284775	0.111813	-0.302566	-0.004269	0.188189	1.266497	0.279514	-0.258165	-0.487535	0.536123	1.295090	0.296003	-0.058987	-0.748893	0.315253	0.955063	1.352238	0.403985	0.134804	-0.404677	1.637974	1.626320	1.409526	0.548107	0.361552	0.264795	0.904189	0.351774	0.616227	1.053566	-0.632480	3.200898
-39.000000	-1.009620	-1.569648	1.288519	0.131433	-0.341559	0.015686	0.244216	1.278456	0.278781	-0.301530	-0.478623	0.753481	1.312810	0.274532	-0.047032	-0.802750	0.421073	0.853493	1.377940	0.386094	0.145532	-0.171025	1.536862	1.865391	1.414185	0.519260	0.388590	0.448529	0.952024	0.454804	0.671682	1.078798	-0.803771	3.306335
-38.000000	-0.939674	-1.497711	1.196369	0.176746	-0.314887	0.005576	0.257317	1.196067	0.245862	-0.317283	-0.394180	0.907207	1.219167	0.207441	-0.024252	-0.606873	0.526099	0.774773	1.306789	0.337042	0.146645	0.066285	1.033506	1.908824	1.309144	0.453521	0.339138	0.550766	0.900254	0.433199	0.596072	0.974704	-0.794393	3.362061
-37.000000	-0.768409	-1.389528	1.053343	0.223409	-0.217194	-0.007493	0.208497	1.059453	0.199640	-0.301830	-0.217322	0.908180	1.060247	0.152068	-0.002683	-0.163343	0.620021	0.584968	1.165983	0.285594	0.123678	0.225996	0.380479	1.703716	1.147882	0.354016	0.219877	0.531185	0.760350	0.242929	0.350527	0.683804	-0.436292	3.340887
-36.000000	-0.568979	-1.249266	0.918598	0.269526	-0.099483	-0.023853	0.144559	0.927154	0.195415	-0.256283	-0.014951	0.779466	0.917424	0.225944	0.017831	0.323559	0.767753	0.311206	1.036301	0.321185	0.079618	0.290408	-0.066752	1.308536	1.023865	0.295826	0.081652	0.415532	0.591649	-0.009259	0.053134	0.325195	0.021188	3.218528
-35.000000	-0.418253	-1.106724	0.825434	0.319013	0.006356	0.015556	0.185046	0.837542	0.230031	-0.170077	0.117389	0.727563	0.836292	0.406692	0.033853	0.508526	1.181392	0.131875	0.957283	0.440813	0.040173	0.313368	-0.097343	0.964739	0.966842	0.314037	-0.040209	0.341892	0.390061	-0.185339	-0.153712	0.067373	0.252212	3.010405
-34.000000	-0.393914	-0.971491	0.763027	0.366394	0.104864	0.116543	0.386204	0.766994	0.247978	-0.065510	0.121217	0.861173	0.781185	0.523221	0.027987	0.204219	1.794884	0.076636	0.893062	0.518432	0.007957	0.280057	0.167541	0.827778	0.909609	0.340080	-0.132850	0.420486	0.067025	-0.290258	-0.254061	-0.067611	0.229994	2.798783
-33.000000	-0.507395	-0.845413	0.678756	0.409000	0.170400	0.133702	0.534358	0.673878	0.260819	0.009603	0.029149	0.958092	0.693617	0.513870	0.001789	-0.316174	2.149495	-0.006231	0.774495	0.508128	-0.023644	0.179810	0.391774	0.664712	0.785725	0.335390	-0.172189	0.602142	-0.295092	-0.381596	-0.298406	-0.137681	0.172508	2.604241
-32.000000	-0.685763	-0.739270	0.540417	0.417952	0.192114	-0.019558	0.454967	0.545114	0.299755	0.052568	-0.047200	0.851684	0.552857	0.494496	-0.017905	-0.589814	2.104477	-0.221750	0.578097	0.501091	-0.048181	0.015037	0.581858	0.368711	0.588373	0.360663	-0.174209	0.555410	-0.429035	-0.459764	-0.328586	-0.175892	0.218444	2.415911
-31.000000	-0.879183	-0.649601	0.389911	0.367774	0.204301	-0.212183	0.244591	0.409560	0.300032	0.087368	0.023376	0.621544	0.398486	0.462282	-0.008987	-0.358755	1.823788	-0.461821	0.366576	0.490224	-0.063885	-0.161610	0.842511	0.080884	0.380441	0.392269	-0.195314	0.091533	-0.305199	-0.535570	-0.389706	-0.259573	0.312329	2.300057
-30.000000	-1.071870	-0.615526	0.321983	0.286571	0.218839	-0.312537	0.013672	0.357167	0.205330	0.115575	0.240347	0.347734	0.333430	0.267471	0.030518	0.296381	1.274607	-0.602326	0.268634	0.339508	-0.073185	-0.179291	0.799069	-0.239043	0.290791	0.264211	-0.249357	-0.390878	-0.158818	-0.612620	-0.481251	-0.414583	0.287856	2.279946
-29.000000	-1.182170	-0.606048	0.339232	0.241054	0.223703	-0.309681	-0.134224	0.391700	0.087160	0.140048	0.441955	0.144023	0.361992	-0.029532	0.074560	0.959218	0.579179	-0.685185	0.287331	0.058459	-0.075872	-0.007443	0.179028	-0.564782	0.315098	-0.038030	-0.298263	-0.554279	-0.060201	-0.676279	-0.551881	-0.539085	0.046882	2.272709
-28.000000	-1.161398	-0.578146	0.374742	0.255433	0.202024	-0.265438	-0.237900	0.431604	0.032966	0.144443	0.487358	0.039158	0.398183	-0.207178	0.094719	1.199524	0.026706	-0.716730	0.310859	-0.161101	-0.064199	0.150997	-0.710731	-0.651527	0.339043	-0.299032	-0.296744	-0.481028	0.098506	-0.721204	-0.561850	-0.511198	-0.270061	2.263216
-27.000000	-1.047259	-0.615295	0.446094	0.278407	0.137829	-0.251593	-0.458246	0.484239	0.054729	0.113517	0.411787	-0.097140	0.461882	-0.183508	0.100316	1.010032	-0.347027	-0.616116	0.339625	-0.192784	-0.029280	0.149903	-1.413466	-0.472570	0.365866	-0.373986	-0.238145	-0.339058	0.309296	-0.713660	-0.485165	-0.295296	-0.347565	2.390447
-26.000000	-0.923874	-0.733244	0.499875	0.251424	0.040254	-0.250135	-0.658670	0.519691	0.127900	0.085557	0.362943	-0.228671	0.511692	-0.003113	0.100481	0.670554	-0.547079	-0.441759	0.361508	-0.075999	0.041157	0.067794	-1.637585	-0.153451	0.375214	-0.287481	-0.140736	-0.202939	0.507241	-0.638531	-0.331192	0.031745	-0.178535	2.702223
-25.000000	-0.881284	-0.863918	0.449683	0.177414	-0.074361	-0.241424	-0.622880	0.468254	0.228735	0.070806	0.398776	-0.220339	0.460602	0.235837	0.091459	0.345131	-0.542696	-0.347545	0.319524	0.085449	0.148139	0.017736	-1.274718	0.253448	0.318271	-0.126632	-0.017098	-0.052379	0.717235	-0.519480	-0.136749	0.393856	-0.174725	3.009897
-24.000000	-0.903778	-0.979157	0.372885	0.093651	-0.185039	-0.223449	-0.374179	0.386694	0.313307	0.025287	0.367872	-0.008017	0.378357	0.421345	0.070630	0.023138	-0.431688	-0.381573	0.254677	0.228761	0.251962	0.001216	-0.442279	0.628109	0.255450	0.029348	0.114409	0.126709	0.941674	-0.375628	0.060271	0.723955	-0.535626	3.101290
-23.000000	-0.929812	-1.101528	0.346862	0.036800	-0.256741	-0.149933	-0.073058	0.357171	0.333297	-0.064273	0.168592	0.320306	0.342550	0.510780	0.036657	-0.308927	-0.296415	-0.460065	0.228141	0.336708	0.311763	0.004199	0.623769	0.841982	0.236002	0.144318	0.220084	0.296258	1.110497	-0.239320	0.211967	0.949130	-1.026266	2.944232
-22.000000	-0.997021	-1.267408	0.338717	0.039608	-0.287036	-0.097080	0.080914	0.361444	0.301113	-0.157448	-0.029526	0.456731	0.343155	0.555411	0.021474	-0.483066	-0.275907	-0.492465	0.234023	0.410286	0.334070	0.037980	1.652195	0.862750	0.236824	0.213287	0.265563	0.386983	1.130099	-0.166592	0.260284	1.013868	-1.329797	2.658167
-21.000000	-1.193834	-1.457668	0.227398	0.022550	-0.293894	-0.176829	0.024730	0.264658	0.241984	-0.211277	-0.083828	0.248263	0.271817	0.626554	0.043607	-0.388126	-0.491972	-0.585108	0.172244	0.464996	0.344495	0.059117	2.373378	0.694363	0.168445	0.236339	0.250287	0.343259	0.935522	-0.224777	0.144067	0.832712	-1.336118	2.347559
-20.000000	-1.460572	-1.608719	-0.019183	-0.126290	-0.271864	-0.282297	-0.138641	0.021757	0.141261	-0.216485	0.004795	-0.049106	0.066346	0.687821	0.068472	-0.156574	-0.622161	-0.768755	0.008827	0.499042	0.349718	0.058767	2.635398	0.407060	0.008364	0.224221	0.203392	0.219781	0.597087	-0.386987	-0.092565	0.452195	-1.107003	2.089489
-19.000000	-1.621337	-1.596580	-0.224278	-0.325407	-0.221545	-0.288477	-0.201236	-0.194297	-0.012520	-0.204177	0.104916	-0.034717	-0.144903	0.579243	0.068545	-0.007282	-0.349022	-0.839777	-0.122384	0.457654	0.345019	0.116524	2.370970	0.163392	-0.117385	0.180452	0.152999	0.155387	0.286993	-0.520230	-0.295411	0.087426	-0.827402	1.982534
-18.000000	-1.657724	-1.409209	-0.283779	-0.451524	-0.163761	-0.216742	-0.088923	-0.270007	-0.224411	-0.205641	0.113106	0.250445	-0.244654	0.197515	0.048060	0.042626	0.017592	-0.833947	-0.144439	0.262025	0.333240	0.310852	1.598351	0.043690	-0.138446	0.071597	0.115701	0.224189	0.096801	-0.589923	-0.416094	-0.169699	-0.658584	2.018171
-17.000000	-1.673306	-1.214963	-0.259631	-0.533065	-0.110576	-0.154891	-0.065129	-0.256733	-0.472052	-0.192048	0.215449	0.265804	-0.252947	-0.322797	0.026058	0.330400	0.119322	-0.844060	-0.112111	-0.058429	0.317156	0.644757	0.529586	-0.030671	-0.108769	-0.110119	0.084517	0.356299	-0.054882	-0.664875	-0.533440	-0.382075	-0.488014	2.119953
-16.000000	-1.730610	-1.139851	-0.279774	-0.616114	-0.072093	-0.162496	-0.392163	-0.285209	-0.642214	-0.120911	0.594127	-0.315594	-0.297905	-0.655365	0.040192	1.075284	0.028685	-0.821091	-0.155735	-0.322224	0.292770	0.986228	-0.432859	-0.298407	-0.148050	-0.292854	0.031901	0.380842	-0.311556	-0.773705	-0.691520	-0.586078	-0.214244	2.303136
-15.000000	-1.834036	-1.207374	-0.479002	-0.677666	-0.071726	-0.261781	-0.955578	-0.494291	-0.610822	-0.036614	0.984158	-1.129819	-0.509636	-0.579041	0.105123	1.902695	-0.163487	-0.884310	-0.395109	-0.382255	0.278396	1.265726	-0.834489	-0.818268	-0.371029	-0.377556	-0.033397	0.304434	-0.603884	-0.889912	-0.841651	-0.731841	-0.036721	2.568785
-14.000000	-1.840456	-1.308162	-0.754817	-0.665321	-0.095004	-0.386873	-1.246700	-0.784427	-0.403778	-0.021436	0.858420	-1.391156	-0.778860	-0.201696	0.155794	2.019261	-0.317053	-1.045929	-0.702811	-0.223721	0.295133	1.340365	-0.453877	-1.165672	-0.670136	-0.268061	-0.060790	0.263058	-0.703579	-0.894481	-0.861992	-0.714535	-0.120339	2.797134
-13.000000	-1.673549	-1.305953	-0.895070	-0.607057	-0.114120	-0.422085	-1.045384	-0.938923	-0.224550	-0.083439	0.244365	-0.962235	-0.913068	0.155169	0.137572	1.232044	-0.318383	-1.092471	-0.862808	0.039679	0.312583	1.017670	0.435863	-0.971673	-0.822460	0.022300	-0.023452	0.244080	-0.562379	-0.683206	-0.662972	-0.481543	-0.342356	2.898878
-12.000000	-1.494819	-1.226467	-0.845718	-0.583498	-0.140127	-0.376447	-0.658050	-0.881689	-0.238362	-0.170099	-0.305073	-0.413066	-0.858706	0.242825	0.088195	0.238428	-0.292840	-0.888344	-0.794297	0.221709	0.306950	0.505334	1.197795	-0.372365	-0.748761	0.256246	0.051931	0.205832	-0.323277	-0.376357	-0.353349	-0.166790	-0.534122	2.875935
-11.000000	-1.426638	-1.194573	-0.641465	-0.591033	-0.192144	-0.345589	-0.330604	-0.637976	-0.378669	-0.238221	-0.517684	0.005867	-0.625538	0.078297	0.059161	-0.369463	-0.201301	-0.484085	-0.521052	0.270932	0.308845	0.117553	1.417973	0.204094	-0.492662	0.299988	0.132983	0.187176	-0.096801	-0.119920	-0.090776	0.092153	-0.652764	2.818786
-10.000000	-1.472978	-1.271932	-0.410126	-0.620118	-0.286890	-0.434361	-0.268546	-0.365429	-0.474880	-0.288130	-0.474495	0.155204	-0.355210	-0.109991	0.061366	-0.410367	-0.090688	-0.023348	-0.230590	0.281285	0.338569	-0.025124	1.199299	0.385246	-0.217936	0.300632	0.225524	0.252649	0.101839	0.114945	0.142744	0.350043	-0.636230	2.941801
-9.000000	-1.578980	-1.371764	-0.362353	-0.657448	-0.393553	-0.567142	-0.530764	-0.302576	-0.465662	-0.315827	-0.313640	-0.124752	-0.293544	-0.178333	0.081286	-0.043781	-0.264732	0.311766	-0.168322	0.299827	0.378022	0.050153	0.860142	0.077931	-0.150460	0.329899	0.312268	0.387062	0.257670	0.335089	0.375656	0.642170	-0.522984	3.286831
-8.000000	-1.646187	-1.401781	-0.510845	-0.625883	-0.454729	-0.554774	-0.792443	-0.456163	-0.367502	-0.296490	-0.166093	-0.495486	-0.450029	-0.148866	0.096739	0.257503	-0.742072	0.433257	-0.330367	0.312280	0.421136	0.200995	0.631178	-0.386660	-0.302049	0.351120	0.357990	0.522566	0.345002	0.504811	0.562159	0.889939	-0.527406	3.660689
-7.000000	-1.638622	-1.372590	-0.547593	-0.536940	-0.476043	-0.466799	-0.803595	-0.507488	-0.238127	-0.246791	-0.120272	-0.590771	-0.501251	-0.090924	0.102496	0.239827	-1.143295	0.512842	-0.401405	0.326197	0.480707	0.330364	0.527976	-0.607054	-0.372725	0.392600	0.373546	0.615151	0.323403	0.676422	0.700278	1.013397	-0.599339	3.988110
-6.000000	-1.610803	-1.300610	-0.347415	-0.517638	-0.487565	-0.460479	-0.579931	-0.322311	-0.162473	-0.219844	-0.186939	-0.437208	-0.314016	-0.050943	0.104645	0.020394	-1.155496	0.645728	-0.232754	0.366891	0.540033	0.446281	0.472454	-0.598634	-0.205617	0.473253	0.382921	0.658165	0.202217	0.868489	0.799116	1.000528	-0.496128	4.227386
-5.000000	-1.596609	-1.192781	-0.105342	-0.575939	-0.474828	-0.469989	-0.239264	-0.078307	-0.142163	-0.233536	-0.277578	-0.171877	-0.071272	-0.019166	0.081932	-0.236864	-0.878772	0.766562	0.013847	0.431630	0.562458	0.551790	0.452433	-0.501594	0.052911	0.571239	0.392896	0.698952	0.089496	1.018145	0.861188	0.957119	-0.190117	4.318680
-4.000000	-1.614012	-1.116981	0.038781	-0.637755	-0.410956	-0.430449	-0.032209	0.079041	-0.170461	-0.262309	-0.280413	-0.016985	0.086974	-0.005702	0.014635	-0.347550	-0.593583	0.833635	0.193799	0.477960	0.529224	0.598962	0.403493	-0.305282	0.261754	0.663162	0.396321	0.742048	0.037564	1.099576	0.917476	1.010577	0.225864	4.334986
-3.000000	-1.689599	-1.163904	0.044720	-0.716510	-0.314840	-0.388468	-0.118061	0.094081	-0.262796	-0.289135	-0.164653	-0.144650	0.111659	-0.007736	-0.068924	-0.162034	-0.437797	0.760401	0.254383	0.484089	0.456968	0.576728	0.172570	-0.015959	0.343691	0.702711	0.383764	0.736826	-0.043385	1.093783	0.941509	1.115411	0.656259	4.284006
-2.000000	-1.799348	-1.312002	-0.081179	-0.837279	-0.227566	-0.359918	-0.380634	-0.024994	-0.396201	-0.298411	0.014675	-0.452981	-0.004564	-0.031780	-0.127755	0.227899	-0.379813	0.546454	0.182343	0.441777	0.377981	0.533077	-0.252375	0.312105	0.261326	0.649887	0.355322	0.663360	-0.230145	0.990086	0.881525	1.161494	0.913936	4.099050
-1.000000	-1.857589	-1.471531	-0.259062	-0.918051	-0.144975	-0.322218	-0.656642	-0.205937	-0.517573	-0.277792	0.144044	-0.758572	-0.186755	-0.165888	-0.159702	0.570369	-0.358627	0.270459	0.015576	0.303088	0.290618	0.525651	-0.746132	0.562812	0.070867	0.515786	0.304677	0.567227	-0.453254	0.840579	0.758592	1.157572	0.842116	3.794887
0.000000	-1.792566	-1.601953	-0.379055	-0.892268	-0.039265	-0.200476	-0.730228	-0.344340	-0.566845	-0.258614	0.152139	-0.791488	-0.309201	-0.374806	-0.186379	0.604804	-0.234251	-0.002392	-0.136399	0.085228	0.190988	0.575759	-1.253793	0.696248	-0.092408	0.345676	0.225644	0.531305	-0.591100	0.701505	0.621932	1.120105	0.512348	3.466144
1.000000	-1.686488	-1.679158	-0.452171	-0.853593	0.058083	-0.011095	-0.536426	-0.426610	-0.535180	-0.270100	0.036237	-0.456327	-0.379867	-0.432559	-0.206633	0.232524	0.170948	-0.097690	-0.232426	-0.038206	0.120246	0.642902	-1.784589	0.845331	-0.173123	0.249106	0.148550	0.585306	-0.554682	0.625216	0.528914	1.053165	0.088315	3.250241
2.000000	-1.714307	-1.726752	-0.594237	-0.864812	0.095516	0.088380	-0.364237	-0.552568	-0.472858	-0.295187	-0.091729	-0.121438	-0.528606	-0.251690	-0.199907	-0.177937	0.663008	-0.009858	-0.367414	0.030405	0.107457	0.662126	-2.332358	0.959684	-0.269955	0.273005	0.104391	0.655878	-0.377819	0.607182	0.487892	0.959972	-0.294776	3.190819
3.000000	-1.891180	-1.799251	-0.813990	-0.881008	0.077576	0.059551	-0.388350	-0.753932	-0.451401	-0.309453	-0.051925	-0.071946	-0.770173	-0.036006	-0.158042	-0.134373	0.809624	0.017304	-0.572942	0.137880	0.119914	0.627461	-2.803596	0.856567	-0.451789	0.297941	0.080465	0.660961	-0.187687	0.562349	0.431186	0.816425	-0.532951	3.175436
4.000000	-2.029427	-1.820031	-0.940101	-0.875442	0.027397	-0.023747	-0.502181	-0.874461	-0.503656	-0.310559	0.134143	-0.217960	-0.916148	-0.029838	-0.099829	0.305975	0.546878	-0.053801	-0.699238	0.109873	0.132037	0.588732	-2.937031	0.688094	-0.583205	0.254931	0.072432	0.621200	-0.009193	0.490703	0.379502	0.719127	-0.615178	3.204804
5.000000	-1.992116	-1.694169	-0.825322	-0.859380	-0.033457	-0.080989	-0.539001	-0.766319	-0.632328	-0.319176	0.269052	-0.317335	-0.811311	-0.336247	-0.060240	0.685906	0.193655	-0.039464	-0.616121	-0.087801	0.149324	0.562602	-2.445270	0.736462	-0.519286	0.169585	0.093696	0.605831	0.207422	0.462511	0.419074	0.786695	-0.574979	3.443605
6.000000	-1.853067	-1.440144	-0.582452	-0.881199	-0.090017	-0.038568	-0.397725	-0.540849	-0.810827	-0.340724	0.294876	-0.244741	-0.577181	-0.828736	-0.053172	0.730874	-0.058788	0.166288	-0.427540	-0.356945	0.164898	0.550002	-1.379133	0.968462	-0.351252	0.056750	0.143189	0.636947	0.453371	0.478767	0.530814	0.956345	-0.394122	3.891689
7.000000	-1.759361	-1.153134	-0.433191	-0.951199	-0.167374	0.018353	-0.175677	-0.411195	-0.924715	-0.351785	0.318748	-0.137977	-0.428847	-1.174470	-0.049759	0.653159	-0.228519	0.370211	-0.329553	-0.531058	0.201990	0.634772	-0.134922	1.216961	-0.257747	-0.038912	0.217133	0.736408	0.685870	0.507252	0.653497	1.115658	-0.218472	4.306978
8.000000	-1.755067	-0.968211	-0.447385	-1.005245	-0.285937	-0.056013	-0.011883	-0.448785	-0.904105	-0.364152	0.347413	-0.091812	-0.441115	-1.194751	-0.024358	0.689133	-0.304025	0.326073	-0.367210	-0.522623	0.284599	0.853179	0.901954	1.385981	-0.292258	-0.054702	0.310295	0.910227	0.869057	0.530687	0.751727	1.204621	-0.281301	4.446075
9.000000	-1.811051	-0.898581	-0.534871	-1.031145	-0.425701	-0.224203	0.101201	-0.560635	-0.825503	-0.402133	0.313372	-0.043672	-0.534151	-1.024849	0.015692	0.663851	-0.458244	0.171239	-0.437061	-0.375646	0.377728	1.101739	1.462456	1.374946	-0.362408	0.024182	0.410009	1.100886	0.930949	0.564010	0.801812	1.191292	-0.445428	4.356886
10.000000	-1.922001	-0.897992	-0.578631	-1.081341	-0.560582	-0.381028	0.156159	-0.610771	-0.779574	-0.443930	0.297748	0.006264	-0.575966	-0.848395	0.060545	0.516622	-0.767835	0.137947	-0.435803	-0.179238	0.460482	1.304644	1.488513	1.227615	-0.351938	0.174739	0.500037	1.266211	0.859070	0.665248	0.862048	1.164873	-0.501808	4.232334
11.000000	-2.120199	-0.978712	-0.589081	-1.162672	-0.663897	-0.492286	0.093974	-0.602462	-0.769992	-0.459519	0.414349	0.022992	-0.566015	-0.715694	0.095933	0.475426	-0.736865	0.224881	-0.394856	0.007385	0.529858	1.396239	1.194131	1.089393	-0.296209	0.329923	0.567963	1.360350	0.754102	0.830634	0.992912	1.260801	-0.511098	4.089568
12.000000	-2.355895	-1.074165	-0.619761	-1.213217	-0.709469	-0.516617	-0.017080	-0.606894	-0.762150	-0.447003	0.556164	0.018246	-0.577481	-0.636938	0.100026	0.591223	-0.101482	0.373847	-0.413803	0.107013	0.554302	1.378443	0.790882	0.902763	-0.323300	0.390265	0.609443	1.374951	0.671459	0.967152	1.129824	1.432721	-0.540748	3.917247
13.000000	-2.467980	-1.100559	-0.629310	-1.165540	-0.679197	-0.396968	0.009586	-0.612858	-0.734353	-0.425600	0.545132	0.118604	-0.595702	-0.624974	0.070915	0.623790	0.739667	0.574101	-0.493669	0.086655	0.506517	1.327682	0.357959	0.546942	-0.433254	0.334938	0.608282	1.354188	0.589103	0.988097	1.158904	1.512570	-0.492170	3.834859
14.000000	-2.404181	-1.071856	-0.604996	-1.015647	-0.572998	-0.196921	0.180197	-0.604642	-0.669951	-0.398037	0.432903	0.380508	-0.593635	-0.599186	0.029257	0.440517	1.383063	0.731976	-0.579286	0.032314	0.409258	1.202070	-0.138592	0.066824	-0.533847	0.216505	0.543741	1.257176	0.456535	0.864027	1.037667	1.440962	-0.311053	3.930038
15.000000	-2.275104	-0.994894	-0.634775	-0.878838	-0.429704	-0.074282	0.333297	-0.636667	-0.602196	-0.361880	0.351327	0.665254	-0.630842	-0.482559	-0.013910	0.228658	1.732330	0.642300	-0.664540	0.017360	0.307572	0.953894	-0.648828	-0.300288	-0.618224	0.100840	0.443614	1.048960	0.308911	0.677629	0.834612	1.293938	-0.170404	4.141704
16.000000	-2.182571	-0.890086	-0.741500	-0.849943	-0.301577	-0.073540	0.374039	-0.726710	-0.564450	-0.337872	0.277147	0.852638	-0.728994	-0.297748	-0.057171	0.046406	1.789715	0.301574	-0.735825	0.074484	0.210923	0.617827	-0.958684	-0.282835	-0.697590	0.072257	0.358748	0.803112	0.285549	0.546452	0.650514	1.146092	-0.237169	4.265614
17.000000	-2.150081	-0.821464	-0.855812	-0.871642	-0.216765	-0.136624	0.287988	-0.820427	-0.542285	-0.330959	0.167436	0.884345	-0.830105	-0.124696	-0.088399	-0.188693	1.533836	-0.082328	-0.762251	0.186839	0.131522	0.270943	-0.977391	0.029803	-0.731235	0.136278	0.305164	0.605285	0.387383	0.476648	0.537286	1.035538	-0.476484	4.095195
18.000000	-2.139147	-0.803804	-0.926928	-0.883363	-0.171664	-0.233235	0.102036	-0.884283	-0.550986	-0.329350	0.096215	0.729427	-0.895320	-0.099838	-0.098989	-0.307760	1.081600	-0.375305	-0.759368	0.228401	0.085943	0.025925	-0.744050	0.373075	-0.715738	0.194726	0.270653	0.493193	0.496879	0.423742	0.492267	0.970055	-0.737891	3.667785
19.000000	-2.101608	-0.840645	-0.916605	-0.889085	-0.148788	-0.338806	-0.166937	-0.881364	-0.614408	-0.330593	0.129065	0.392281	-0.884891	-0.278802	-0.106749	-0.117210	0.682588	-0.498882	-0.729256	0.112996	0.069646	-0.021450	-0.328814	0.672112	-0.671672	0.183452	0.255537	0.480601	0.577788	0.392415	0.497000	0.933205	-0.850275	3.264087
20.000000	-2.051585	-0.928585	-0.834335	-0.893155	-0.151852	-0.418415	-0.460417	-0.801689	-0.691635	-0.338757	0.196433	0.009512	-0.800306	-0.522944	-0.129098	0.216062	0.454419	-0.422118	-0.658875	-0.072284	0.081140	0.102265	0.187266	0.911633	-0.603475	0.121732	0.280949	0.559131	0.669836	0.396209	0.545445	0.914734	-0.756008	3.115498
21.000000	-2.016863	-0.967983	-0.723921	-0.878963	-0.195153	-0.509620	-0.598899	-0.696981	-0.701941	-0.359879	0.171926	-0.151437	-0.692009	-0.661210	-0.145840	0.364202	0.367634	-0.218407	-0.564079	-0.179932	0.119081	0.309397	0.635495	1.017413	-0.526192	0.066707	0.340993	0.686029	0.750191	0.407532	0.608597	0.886223	-0.529732	3.204727
22.000000	-1.987469	-0.905754	-0.612878	-0.848253	-0.273442	-0.640556	-0.507931	-0.603975	-0.651764	-0.390999	0.061256	-0.069930	-0.590176	-0.654174	-0.139950	0.355916	0.352268	0.016775	-0.467833	-0.180223	0.176899	0.639060	0.768135	0.918617	-0.463318	0.046506	0.413392	0.838263	0.709296	0.385280	0.632621	0.807600	-0.256660	3.425523
23.000000	-1.952082	-0.882233	-0.524975	-0.823820	-0.363027	-0.777041	-0.373406	-0.528426	-0.606142	-0.432771	-0.038463	-0.023647	-0.510934	-0.578746	-0.121444	0.461742	0.186762	0.253736	-0.395629	-0.145108	0.247941	1.177387	0.515603	0.651735	-0.421660	0.043659	0.484471	1.036985	0.515475	0.328964	0.595044	0.677031	-0.052132	3.697066
24.000000	-1.925997	-1.027966	-0.461179	-0.782059	-0.432709	-0.866481	-0.311321	-0.465151	-0.540874	-0.466558	-0.082534	-0.102714	-0.446857	-0.477372	-0.106775	0.685816	-0.195574	0.480633	-0.340670	-0.102340	0.320583	1.715911	0.083080	0.295730	-0.379027	0.052240	0.539484	1.252302	0.296986	0.285749	0.524603	0.531014	-0.023091	3.935183
25.000000	-1.946989	-1.302411	-0.409198	-0.713889	-0.481319	-0.871853	-0.376117	-0.405422	-0.414233	-0.449779	-0.060944	-0.265514	-0.375413	-0.323580	-0.092322	0.888188	-0.503295	0.727709	-0.273464	-0.021039	0.371493	1.797576	-0.299500	-0.041994	-0.304248	0.093770	0.573642	1.335215	0.194722	0.298282	0.471013	0.410752	-0.076691	4.123778
26.000000	-2.017768	-1.580007	-0.353268	-0.651042	-0.511989	-0.811863	-0.571055	-0.336199	-0.264556	-0.381688	-0.006939	-0.460383	-0.289007	-0.121607	-0.068773	0.994697	-0.559380	0.963612	-0.195423	0.111831	0.399518	1.329319	-0.692946	-0.197736	-0.210853	0.173820	0.580763	1.165881	0.191488	0.344353	0.438902	0.341117	-0.005551	4.172228
27.000000	-2.098980	-1.786936	-0.293093	-0.602070	-0.507989	-0.701712	-0.673550	-0.263737	-0.159647	-0.302085	0.013186	-0.468030	-0.207980	0.097197	-0.046385	0.879791	-0.446962	1.043803	-0.123413	0.293945	0.424017	0.685173	-1.231253	-0.138577	-0.132663	0.280576	0.554374	0.845538	0.177840	0.372800	0.417561	0.336054	0.124011	3.992564
28.000000	-2.194246	-1.958762	-0.269541	-0.600205	-0.487307	-0.614509	-0.691647	-0.229089	-0.136993	-0.252192	0.038946	-0.329144	-0.184069	0.289352	-0.021728	0.679280	-0.240477	0.949432	-0.090821	0.495598	0.449374	0.285584	-1.772238	-0.062291	-0.089943	0.417082	0.509035	0.583613	0.064530	0.384486	0.417827	0.355476	0.181424	3.762058
29.000000	-2.334184	-2.149570	-0.321995	-0.668568	-0.464023	-0.641090	-0.893974	-0.268474	-0.179247	-0.248580	0.191255	-0.427385	-0.253247	0.353935	0.006867	0.786888	0.031255	0.744831	-0.152372	0.620998	0.457294	0.302217	-2.054608	-0.217475	-0.131458	0.562344	0.457156	0.437916	-0.203012	0.361359	0.389881	0.288785	0.276655	3.661724
30.000000	-2.492045	-2.309810	-0.415564	-0.726209	-0.415274	-0.747525	-1.287511	-0.358057	-0.227705	-0.269102	0.393859	-0.848511	-0.371875	0.206185	0.027207	1.255547	0.252606	0.441218	-0.277976	0.546094	0.431227	0.612345	-1.916517	-0.522368	-0.242908	0.591521	0.388067	0.408274	-0.531707	0.233437	0.272711	0.118022	0.356047	3.661824
31.000000	-2.589226	-2.330296	-0.443464	-0.713104	-0.325130	-0.803219	-1.601172	-0.387363	-0.248637	-0.269613	0.449057	-1.215761	-0.414561	-0.068928	0.021874	1.620001	0.332271	0.190040	-0.310067	0.273633	0.380716	0.899432	-1.368339	-0.559851	-0.266219	0.409531	0.303255	0.531779	-0.744003	0.074264	0.136101	-0.006271	0.248259	3.662456
32.000000	-2.576577	-2.197487	-0.340337	-0.679254	-0.216148	-0.756590	-1.726592	-0.279300	-0.290690	-0.246914	0.367403	-1.331840	-0.301873	-0.322013	-0.027407	1.414027	0.251270	0.193721	-0.164940	-0.018941	0.314603	0.886646	-0.765262	-0.277483	-0.115290	0.159602	0.243556	0.769189	-0.834881	0.064090	0.109036	0.036959	0.072644	3.621196
33.000000	-2.470913	-1.984655	-0.158521	-0.649681	-0.121227	-0.708947	-1.716795	-0.095362	-0.390786	-0.233243	0.253769	-1.289332	-0.097136	-0.509748	-0.106204	0.768638	0.026344	0.338989	0.059895	-0.202750	0.242115	0.666936	-0.428870	-0.048630	0.108875	0.017566	0.227431	0.999828	-0.822010	0.195763	0.183160	0.198052	-0.018944	3.552359
34.000000	-2.300569	-1.740668	0.005819	-0.592736	-0.022394	-0.701488	-1.479234	0.070459	-0.478725	-0.222971	0.037737	-1.027175	0.092400	-0.617568	-0.186676	0.008940	-0.240123	0.437708	0.243560	-0.268578	0.170847	0.449628	-0.227264	0.047142	0.292678	-0.000900	0.209070	0.945624	-0.589553	0.359737	0.263843	0.385837	0.028139	3.522266
35.000000	-2.106999	-1.581993	0.120828	-0.505685	0.073685	-0.731603	-1.171164	0.175715	-0.474679	-0.200742	-0.307653	-0.733969	0.214752	-0.607535	-0.249977	-0.668374	-0.568181	0.449975	0.353517	-0.240553	0.112122	0.320713	-0.099870	0.094552	0.387649	0.054548	0.176292	0.589116	-0.195844	0.510895	0.323214	0.538374	0.373083	3.621461
36.000000	-1.935181	-1.626432	0.180630	-0.416685	0.112473	-0.851900	-1.127860	0.206719	-0.398439	-0.186708	-0.596090	-0.763773	0.258794	-0.511830	-0.274400	-1.025284	-0.978854	0.344161	0.387777	-0.157796	0.082700	0.239922	-0.158392	-0.006179	0.384750	0.130029	0.161926	0.338523	0.042026	0.575801	0.318197	0.548867	0.995615	3.848863
37.000000	-1.796988	-1.765846	0.190772	-0.326131	0.090434	-1.018552	-1.259265	0.195016	-0.306188	-0.195717	-0.759919	-0.965503	0.262820	-0.346159	-0.247488	-1.146957	-1.342735	0.207077	0.366743	-0.038065	0.081665	0.039969	-0.312771	-0.248609	0.340858	0.212647	0.157054	0.367356	-0.027883	0.533556	0.204287	0.383400	1.555889	4.093903
38.000000	-1.656668	-1.842354	0.208408	-0.215610	0.050946	-1.114477	-1.362250	0.200497	-0.197868	-0.203804	-0.880485	-1.084649	0.280939	-0.025036	-0.185923	-1.273783	-1.633936	0.197638	0.350932	0.162807	0.097894	-0.280862	-0.308321	-0.461902	0.329062	0.311349	0.134977	0.395182	-0.198629	0.441825	0.035039	0.099890	1.859706	4.269998
39.000000	-1.464619	-1.835071	0.220830	-0.098167	0.026192	-1.105437	-1.453015	0.197237	-0.040771	-0.175465	-0.915715	-1.189879	0.275603	0.478793	-0.118403	-1.248679	-1.924859	0.267713	0.330480	0.486542	0.120100	-0.580719	0.075272	-0.522577	0.318055	0.423638	0.092211	0.080897	-0.242733	0.311984	-0.142157	-0.249712	1.957403	4.340994
40.000000	-1.243116	-1.735752	0.199387	-0.003307	0.005425	-1.015051	-1.468924	0.164228	0.132358	-0.118117	-0.781192	-1.260753	0.231931	0.961120	-0.061590	-0.896158	-2.111377	0.363927	0.290486	0.807126	0.140661	-0.746029	0.762827	-0.431259	0.275902	0.525754	0.056164	-0.407204	-0.140913	0.182491	-0.279456	-0.516886	1.893156	4.314774
41.000000	-1.052949	-1.521631	0.239197	0.059816	-0.025494	-0.845319	-1.268694	0.208071	0.220727	-0.085607	-0.541233	-1.078628	0.257276	1.075460	-0.035139	-0.494577	-1.782101	0.585689	0.316430	0.901360	0.154548	-0.740727	1.527330	-0.247557	0.294736	0.573529	0.060634	-0.620897	0.088079	0.166072	-0.266225	-0.518267	1.646723	4.202136
42.000000	-0.932173	-1.304613	0.394416	0.111107	-0.060680	-0.637819	-0.939391	0.374572	0.231827	-0.099228	-0.333970	-0.654810	0.400281	0.811807	-0.051050	-0.417158	-0.804621	0.863711	0.445408	0.760062	0.175476	-0.633872	2.140098	0.007671	0.422776	0.576102	0.111730	-0.470769	0.419672	0.314643	-0.058593	-0.247210	1.194012	3.892438
43.000000	-0.893759	-1.197510	0.541815	0.169565	-0.102156	-0.486845	-0.633805	0.540668	0.291047	-0.134697	-0.292033	-0.187110	0.554380	0.545959	-0.094905	-0.638010	0.357685	0.979290	0.580527	0.608060	0.213237	-0.531441	2.320683	0.251321	0.563100	0.594371	0.197060	-0.170266	0.702115	0.538667	0.247290	0.131831	0.619683	3.404772
44.000000	-0.935580	-1.186963	0.551480	0.176483	-0.161223	-0.452303	-0.420999	0.588256	0.401614	-0.168896	-0.405081	0.148839	0.596449	0.481271	-0.141368	-0.788351	1.191295	0.865634	0.618891	0.590502	0.266154	-0.438766	1.996960	0.319534	0.619341	0.647054	0.302591	0.113505	0.807319	0.751037	0.535195	0.472156	0.099956	3.018667
45.000000	-1.036832	-1.288643	0.462840	0.052842	-0.236329	-0.507093	-0.371052	0.533833	0.440541	-0.198232	-0.490294	0.252141	0.531734	0.520562	-0.164755	-0.686810	1.464694	0.679491	0.563097	0.647860	0.327210	-0.285390	1.407247	0.219895	0.589257	0.696597	0.401083	0.346057	0.808249	0.931061	0.755149	0.744920	-0.204260	2.893745
46.000000	-1.172420	-1.497723	0.412621	-0.136454	-0.293700	-0.539843	-0.426855	0.487301	0.361032	-0.234207	-0.512490	0.237631	0.479117	0.541421	-0.165763	-0.589830	1.209327	0.650690	0.513992	0.684148	0.364472	-0.127856	0.824971	0.106748	0.552485	0.726158	0.459463	0.491302	0.820253	1.054461	0.883079	0.944447	-0.278567	2.937621
47.000000	-1.345326	-1.762476	0.442250	-0.297276	-0.301204	-0.524354	-0.519939	0.497710	0.195095	-0.280485	-0.540128	0.218486	0.493147	0.506417	-0.173605	-0.671325	0.687396	0.776316	0.529838	0.677488	0.358046	-0.059387	0.348883	0.115727	0.565780	0.736327	0.474808	0.512773	0.797556	1.091149	0.902192	1.031400	-0.184389	3.024443
48.000000	-1.542295	-2.053336	0.508989	-0.392280	-0.267873	-0.570148	-0.733014	0.543650	0.035962	-0.320749	-0.570290	0.067329	0.546893	0.466518	-0.196861	-0.750324	0.182675	0.891057	0.580126	0.653298	0.320204	-0.050532	-0.042323	0.297637	0.609681	0.713703	0.464735	0.425456	0.629019	1.036036	0.828632	0.989220	0.105667	3.116957
49.000000	-1.701252	-2.282992	0.611654	-0.366075	-0.217775	-0.695939	-1.117991	0.631001	0.001581	-0.335469	-0.590454	-0.329568	0.642929	0.471904	-0.213312	-0.672285	-0.225730	0.961711	0.655821	0.619247	0.267593	-0.057092	-0.388580	0.464416	0.670998	0.658931	0.431087	0.292105	0.202627	0.931759	0.690451	0.806351	0.679178	3.283182
50.000000	-1.790941	-2.363834	0.675609	-0.247507	-0.158711	-0.807549	-1.538058	0.692658	0.066947	-0.338615	-0.576320	-0.837939	0.703345	0.468773	-0.201843	-0.451164	-0.597669	0.976706	0.696750	0.536765	0.220676	-0.024185	-0.678956	0.406180	0.689933	0.560429	0.360554	0.275390	-0.474432	0.787481	0.494536	0.494905	1.467673	3.562150
51.000000	-1.796084	-2.311965	0.667153	-0.129207	-0.094106	-0.842517	-1.787095	0.691544	0.111055	-0.355125	-0.536970	-1.257664	0.685762	0.410906	-0.178129	-0.206904	-0.997185	0.928625	0.667539	0.402273	0.193659	0.151306	-0.885102	0.182279	0.651773	0.424716	0.272235	0.475603	-1.088090	0.588924	0.263542	0.169578	2.151883	3.865260
52.000000	-1.665306	-2.160750	0.684337	-0.035221	-0.009943	-0.751059	-1.719752	0.717133	0.120309	-0.365731	-0.497617	-1.363948	0.698517	0.374865	-0.180348	-0.126662	-1.148602	0.816487	0.658213	0.308787	0.168261	0.379876	-1.005000	-0.100594	0.658140	0.335699	0.190292	0.573457	-1.284814	0.407288	0.078930	-0.029429	2.376191	4.055118
53.000000	-1.438699	-1.958503	0.721602	0.019812	0.078684	-0.542969	-1.352746	0.762995	0.134103	-0.346324	-0.442621	-1.031466	0.740352	0.438712	-0.205652	-0.236010	-0.882681	0.624874	0.690432	0.356188	0.134761	0.448530	-1.120262	-0.339490	0.721769	0.383048	0.126968	0.304347	-1.047478	0.344703	0.020763	-0.043202	2.068366	4.073967
54.000000	-1.219232	-1.759167	0.711766	0.006539	0.101344	-0.362109	-0.984422	0.742319	0.114309	-0.304224	-0.326566	-0.582077	0.717055	0.600118	-0.213234	-0.274263	-0.658933	0.463337	0.700336	0.570082	0.124677	0.382744	-1.388947	-0.393270	0.755099	0.596120	0.111891	-0.017944	-0.636475	0.404666	0.055950	0.041867	1.530788	4.015651
55.000000	-1.043144	-1.543007	0.681039	-0.036838	0.056892	-0.293151	-0.777326	0.692628	0.079437	-0.232863	-0.132006	-0.315425	0.669313	0.820253	-0.178324	-0.012042	-0.593065	0.423107	0.704792	0.855678	0.152902	0.314363	-1.696913	-0.232474	0.753679	0.833156	0.121432	-0.107593	-0.257167	0.490095	0.095330	0.081524	1.105054	3.972772
56.000000	-0.875728	-1.300478	0.763399	-0.015589	0.004471	-0.283853	-0.567340	0.769526	0.130826	-0.130486	0.036661	-0.185516	0.753732	0.992618	-0.114369	0.378302	-0.383221	0.479889	0.818662	1.007518	0.190858	0.284393	-1.715213	0.115151	0.849790	0.871676	0.109898	0.005213	0.043502	0.527026	0.125580	0.064181	0.981059	4.002569
57.000000	-0.681726	-1.057989	0.999744	0.104342	-0.029536	-0.281109	-0.309028	1.007070	0.267215	-0.023536	0.103157	-0.093550	1.005987	0.995113	-0.053688	0.596028	-0.085472	0.608569	1.054632	0.931959	0.212895	0.310745	-1.327577	0.664158	1.075118	0.732567	0.083224	0.232083	0.280869	0.535470	0.185112	0.074644	1.107019	4.173190
58.000000	-0.514031	-0.804149	1.252993	0.268300	-0.044229	-0.302567	-0.095975	1.265349	0.428874	0.061281	0.075836	0.057430	1.275324	0.869236	-0.018670	0.593376	0.158874	0.831211	1.274191	0.736424	0.222163	0.359898	-0.651293	1.387827	1.287781	0.591771	0.062899	0.454749	0.466400	0.584517	0.318749	0.211626	1.223507	4.430957
59.000000	-0.511049	-0.610602	1.411566	0.383236	-0.068937	-0.415278	-0.026920	1.429209	0.592471	0.108673	-0.006432	0.152854	1.435853	0.794837	0.000483	0.556817	0.376886	1.120213	1.379396	0.577527	0.232824	0.419735	0.109193	2.090498	1.386926	0.536247	0.068453	0.607095	0.570883	0.693132	0.530094	0.530650	1.158259	4.622538
60.000000	-0.757941	-0.645630	1.461951	0.385241	-0.122321	-0.588068	-0.136826	1.480610	0.735074	0.121152	-0.041453	0.032782	1.482791	0.861495	0.020471	0.642597	0.570766	1.313857	1.392088	0.548152	0.241109	0.501141	0.733255	2.444325	1.384350	0.562385	0.101851	0.698593	0.580437	0.789121	0.750296	0.937721	0.903160	4.674032
61.000000	-1.096267	-0.862741	1.482708	0.334884	-0.161017	-0.692862	-0.276171	1.505635	0.854212	0.115215	-0.026429	-0.146022	1.508453	1.014875	0.020620	0.683994	0.708957	1.332520	1.415299	0.628279	0.229728	0.516342	1.040097	2.225010	1.391340	0.635795	0.140397	0.721591	0.521709	0.842523	0.926045	1.305682	0.547850	4.673185
62.000000	-1.327866	-1.133962	1.527285	0.281098	-0.159634	-0.710549	-0.332116	1.557880	0.905135	0.099185	-0.026585	-0.173514	1.566356	1.137318	-0.003846	0.550721	0.842384	1.240639	1.486112	0.724309	0.189694	0.455142	1.057585	1.578164	1.461398	0.707083	0.163480	0.721912	0.484656	0.908107	1.077698	1.657982	0.266339	4.712082
63.000000	-1.467554	-1.405282	1.508801	0.179576	-0.141720	-0.747593	-0.360735	1.543699	0.822153	0.067147	-0.048626	-0.077194	1.555551	1.171130	-0.029877	0.344936	0.978249	1.072784	1.508034	0.791551	0.136586	0.363087	0.928098	0.939289	1.496273	0.755769	0.171597	0.748567	0.553457	0.989215	1.223619	2.026522	0.153041	4.630820
64.000000	-1.569563	-1.542058	1.393192	0.034180	-0.124829	-0.804336	-0.429776	1.441090	0.660225	0.027121	-0.060120	-0.039190	1.442308	1.178261	-0.048528	0.149151	0.970125	0.932148	1.462079	0.861077	0.104556	0.221320	0.689068	0.652535	1.470855	0.811077	0.173357	0.756524	0.681757	1.038803	1.305173	2.293292	0.136415	4.249376
65.000000	-1.604848	-1.440661	1.286503	-0.111913	-0.098584	-0.743284	-0.437142	1.347745	0.486879	-0.002597	-0.043499	-0.004690	1.339920	1.104371	-0.074245	-0.043006	0.831186	0.958367	1.430482	0.894294	0.092997	0.089469	0.442395	0.754688	1.463734	0.865827	0.172829	0.743168	0.798606	1.051632	1.302804	2.367241	0.212988	3.742457
66.000000	-1.578730	-1.160149	1.256288	-0.214690	-0.040231	-0.558998	-0.299556	1.318335	0.299158	-0.009210	0.005883	0.157629	1.304180	0.826070	-0.127594	-0.249398	0.750179	1.059928	1.427653	0.796296	0.070056	0.049031	0.450890	1.062065	1.489416	0.860937	0.167825	0.761704	0.873489	1.033412	1.249446	2.293402	0.365689	3.402948
67.000000	-1.529082	-0.855683	1.291467	-0.227271	0.038690	-0.404620	-0.188002	1.353804	0.151956	-0.000804	0.100658	0.290739	1.323170	0.477197	-0.193136	-0.319055	0.734220	1.083409	1.439892	0.609872	0.027976	0.089461	0.842524	1.299810	1.517430	0.768773	0.154446	0.799742	0.836742	0.956340	1.117457	2.098942	0.455318	3.354375
68.000000	-1.448706	-0.603999	1.346133	-0.150260	0.111761	-0.343190	-0.147843	1.400174	0.125911	0.008521	0.150020	0.323940	1.357809	0.278484	-0.245658	-0.184207	0.672433	1.048147	1.444079	0.451447	-0.027519	0.141229	1.347171	1.291370	1.508641	0.641457	0.133897	0.789108	0.688487	0.830389	0.916159	1.798784	0.455007	3.513207
69.000000	-1.327149	-0.447618	1.348828	-0.042630	0.153649	-0.350120	-0.132480	1.382995	0.190379	0.030279	0.085757	0.294453	1.344110	0.259315	-0.271766	0.007329	0.497024	1.035375	1.397484	0.367667	-0.073995	0.181534	1.571684	1.137576	1.431941	0.551062	0.118117	0.736988	0.553181	0.720914	0.743214	1.507482	0.494128	3.687293
70.000000	-1.189768	-0.477165	1.294308	0.015885	0.139049	-0.422350	-0.315400	1.318092	0.253869	0.050751	0.001799	0.040770	1.291339	0.356711	-0.266607	0.227179	-0.001014	1.085776	1.332446	0.381328	-0.072964	0.275001	1.241366	1.022810	1.336922	0.530758	0.127558	0.719730	0.429755	0.693855	0.678688	1.350008	0.728332	3.830045
71.000000	-1.111462	-0.756774	1.244408	-0.021741	0.062953	-0.545804	-0.736629	1.263788	0.283443	0.035811	-0.052170	-0.453629	1.260878	0.540919	-0.239726	0.478771	-0.792598	1.223201	1.296460	0.508677	-0.035303	0.450910	0.360534	0.980165	1.305482	0.589573	0.176773	0.788074	0.251094	0.800682	0.761067	1.384010	1.120572	3.951973
72.000000	-1.111811	-1.215975	1.264070	-0.114516	-0.053002	-0.677108	-1.079067	1.271126	0.305508	-0.003358	-0.146680	-0.832932	1.293743	0.724991	-0.208715	0.544803	-1.249390	1.522304	1.322157	0.684192	0.001146	0.597559	-0.590170	1.008293	1.375141	0.714657	0.261717	0.912235	0.144835	1.061876	1.010119	1.632876	1.409200	3.975421
73.000000	-1.129648	-1.687172	1.381197	-0.180987	-0.154090	-0.728379	-1.078673	1.376607	0.328069	-0.050451	-0.315460	-0.810990	1.405492	0.769557	-0.201129	0.227175	-1.020666	1.936338	1.439515	0.785191	0.032145	0.597064	-1.142520	1.156622	1.519090	0.852398	0.355219	1.024727	0.246369	1.423400	1.372007	2.033851	1.418024	3.928022
74.000000	-1.151906	-2.012481	1.530555	-0.200434	-0.208581	-0.669653	-0.822593	1.522564	0.342130	-0.100606	-0.504543	-0.467943	1.541903	0.688765	-0.218824	-0.326283	-0.404507	2.222922	1.580621	0.784177	0.071240	0.500187	-1.262798	1.398859	1.658568	0.949120	0.427405	1.105761	0.474424	1.739104	1.689126	2.374011	1.187089	3.939169
75.000000	-1.196774	-2.104947	1.623024	-0.183082	-0.232701	-0.584648	-0.518534	1.621467	0.368259	-0.125136	-0.613573	-0.048013	1.627067	0.621187	-0.227347	-0.704599	0.220213	2.273774	1.662496	0.748605	0.117243	0.439047	-1.128949	1.671125	1.739404	1.001599	0.460048	1.142913	0.667743	1.883476	1.824332	2.472995	0.831637	4.056670
76.000000	-1.251674	-2.037012	1.640477	-0.129161	-0.237122	-0.502643	-0.279687	1.648617	0.421859	-0.115203	-0.564924	0.277254	1.634824	0.630055	-0.213446	-0.653456	0.681070	2.174025	1.668528	0.721708	0.150481	0.465309	-0.887220	1.872581	1.744590	1.020777	0.450568	1.134088	0.770037	1.883861	1.800221	2.366637	0.458295	4.229371
77.000000	-1.295485	-1.889529	1.650958	-0.041281	-0.226850	-0.409793	-0.145025	1.661553	0.516966	-0.092108	-0.405531	0.447625	1.627788	0.714925	-0.187926	-0.326031	0.892970	2.026275	1.656464	0.734029	0.163448	0.497719	-0.676453	1.913331	1.724916	1.025890	0.414776	1.081132	0.790057	1.851090	1.724200	2.197773	0.163863	4.397297
78.000000	-1.341590	-1.674956	1.691689	0.025062	-0.205473	-0.334443	-0.100840	1.696443	0.624102	-0.073996	-0.223005	0.456373	1.662507	0.820856	-0.166385	0.073100	0.747670	1.862062	1.690518	0.772951	0.159583	0.520017	-0.650455	1.817497	1.743684	1.031628	0.371857	0.998908	0.734291	1.826243	1.624292	2.048051	-0.023145	4.500753
79.000000	-1.431441	-1.454789	1.686041	-0.012126	-0.170490	-0.294491	-0.134572	1.685804	0.637972	-0.065007	-0.010984	0.300495	1.660193	0.829675	-0.161447	0.572774	0.312902	1.741930	1.707166	0.760214	0.148028	0.649129	-0.749110	1.689801	1.747612	1.019521	0.331937	0.975042	0.686290	1.786598	1.491424	1.964234	-0.069818	4.484957
80.000000	-1.528845	-1.296238	1.626930	-0.099047	-0.118320	-0.261385	-0.222048	1.626625	0.551917	-0.042966	0.182695	0.065308	1.595827	0.728261	-0.163345	1.026988	-0.068861	1.746464	1.661833	0.680936	0.134784	0.786657	-0.672375	1.645083	1.699859	0.970518	0.281665	1.003412	0.727510	1.705898	1.351427	1.975962	0.112402	4.372733
81.000000	-1.483541	-1.196145	1.623490	-0.068236	-0.011744	-0.170215	-0.223380	1.625972	0.492021	0.016312	0.211031	-0.050917	1.591149	0.619067	-0.169051	1.008634	-0.098435	1.800570	1.648663	0.604776	0.101261	0.668866	-0.295297	1.694213	1.694879	0.887957	0.180794	0.927824	0.792462	1.576769	1.197805	1.977617	0.417723	4.222611
82.000000	-1.237536	-1.113330	1.701496	0.119461	0.168987	-0.038761	-0.112674	1.719467	0.542123	0.095545	0.044061	-0.041354	1.685028	0.570524	-0.186623	0.456817	0.034600	1.880469	1.723562	0.582396	0.036257	0.301400	0.113534	1.708894	1.787551	0.808900	0.017636	0.702405	0.764718	1.436232	1.006226	1.837674	0.648713	4.136207
83.000000	-0.930172	-1.002972	1.774564	0.336616	0.369740	0.038920	-0.010869	1.802455	0.659841	0.163625	-0.199955	-0.019338	1.766701	0.579006	-0.205647	-0.217959	-0.000714	1.981922	1.792900	0.591870	-0.046351	-0.063203	0.231086	1.503682	1.879668	0.740044	-0.164093	0.451246	0.614985	1.274133	0.772978	1.566763	0.783787	4.140491
84.000000	-0.715310	-0.898343	1.721186	0.472541	0.524259	0.038109	0.012399	1.742323	0.741157	0.223435	-0.386258	-0.000631	1.702897	0.625721	-0.209467	-0.666447	-0.159958	2.021177	1.713297	0.585820	-0.125777	-0.228284	-0.022237	1.122975	1.822754	0.640148	-0.314792	0.339274	0.365926	1.018522	0.505924	1.264578	0.805635	4.101361
85.000000	-0.645217	-0.914628	1.458108	0.488491	0.604660	-0.017115	-0.174012	1.480881	0.746458	0.289241	-0.418908	-0.152645	1.432468	0.731230	-0.179211	-0.679401	-0.399783	1.955773	1.431649	0.559352	-0.186978	-0.168341	-0.628878	0.619222	1.544713	0.487939	-0.425449	0.444280	-0.043653	0.638408	0.195847	0.998668	0.732841	3.954656
86.000000	-0.729004	-1.041201	1.060791	0.403636	0.632460	-0.102266	-0.557758	1.092951	0.721774	0.361599	-0.281166	-0.563165	1.046962	0.892299	-0.113585	-0.265041	-0.788581	1.768799	1.039861	0.528173	-0.216818	0.009070	-1.435954	-0.095385	1.133692	0.298462	-0.518876	0.676298	-0.576437	0.182234	-0.164359	0.747321	0.741345	3.771971
87.000000	-0.931241	-1.107914	0.748276	0.305993	0.653860	-0.177900	-0.832608	0.779226	0.717524	0.429876	-0.082829	-0.879409	0.750798	0.996380	-0.038565	0.178393	-1.092891	1.435552	0.722370	0.494454	-0.216403	0.098132	-1.826701	-0.791357	0.790018	0.126848	-0.615296	0.723437	-0.884188	-0.205688	-0.489507	0.519132	0.833652	3.650991
88.000000	-1.124222	-1.036626	0.655897	0.297204	0.687550	-0.209277	-0.836374	0.663226	0.763134	0.487468	0.059070	-0.877510	0.649924	0.963967	0.026260	0.312334	-1.100017	0.948105	0.581501	0.459080	-0.204233	-0.024843	-1.318005	-1.129531	0.628645	0.010624	-0.713810	0.354071	-0.799573	-0.440986	-0.710892	0.345333	0.782276	3.569936
89.000000	-1.225397	-0.946520	0.673460	0.361641	0.719105	-0.180842	-0.729376	0.652737	0.834667	0.536336	0.129105	-0.797922	0.636191	0.856752	0.078489	0.202877	-1.045633	0.428432	0.536884	0.415305	-0.192394	-0.231973	-0.303676	-1.130395	0.570274	-0.074953	-0.797595	-0.189673	-0.628767	-0.612880	-0.900808	0.152210	0.562867	3.489682
90.000000	-1.286767	-0.969972	0.634829	0.382615	0.711762	-0.128608	-0.672664	0.603981	0.869114	0.565462	0.146235	-0.769868	0.573080	0.734998	0.129414	0.018677	-1.045081	0.012656	0.472829	0.347737	-0.186671	-0.321326	0.563853	-1.079221	0.489041	-0.147691	-0.841175	-0.502170	-0.618761	-0.807301	-1.113067	-0.101188	0.360966	3.443062
91.000000	-1.385358	-1.143148	0.535699	0.305359	0.639047	-0.124917	-0.680000	0.503383	0.860935	0.556834	0.126063	-0.731940	0.466855	0.644068	0.182171	-0.176105	-0.972645	-0.254567	0.384871	0.266781	-0.181720	-0.218976	0.783206	-1.134051	0.382278	-0.198533	-0.821218	-0.390864	-0.782426	-1.036800	-1.320354	-0.357624	0.228223	3.339286
92.000000	-1.515951	-1.384370	0.449940	0.166473	0.525976	-0.192607	-0.694648	0.419124	0.849581	0.530919	0.074114	-0.720471	0.382373	0.676045	0.228711	-0.309590	-0.922334	-0.347824	0.325796	0.237956	-0.146165	0.024285	-0.008989	-1.203642	0.322629	-0.217852	-0.754686	0.072546	-1.057945	-1.304393	-1.530244	-0.600310	0.095288	3.142167
93.000000	-1.612076	-1.549506	0.381789	0.018970	0.431926	-0.287247	-0.654823	0.366895	0.848882	0.526570	0.043251	-0.697904	0.331016	0.846820	0.273210	-0.273770	-0.895086	-0.211628	0.300103	0.293844	-0.068690	0.267711	-1.371624	-1.253178	0.319020	-0.203483	-0.705137	0.431870	-1.228502	-1.567716	-1.760214	-0.845683	0.011506	3.035101
94.000000	-1.677664	-1.608110	0.272545	-0.092092	0.401320	-0.340896	-0.552904	0.288585	0.867081	0.548216	0.127179	-0.631132	0.258029	1.061549	0.314082	0.015037	-0.795685	0.029661	0.257154	0.371591	0.008919	0.366150	-2.282788	-1.370271	0.287121	-0.189231	-0.715401	0.247512	-1.157933	-1.806576	-2.017861	-1.096132	0.049246	3.089455
95.000000	-1.751230	-1.610877	0.137902	-0.128092	0.424076	-0.371190	-0.493490	0.173672	0.866110	0.590185	0.330501	-0.598068	0.156583	1.105975	0.331180	0.480123	-0.707990	0.156588	0.176592	0.345573	0.054880	0.332061	-2.194511	-1.493461	0.199316	-0.246039	-0.755256	-0.216649	-0.965294	-2.034898	-2.287251	-1.329406	0.140837	3.169941
96.000000	-1.815089	-1.568506	0.057293	-0.090898	0.476346	-0.404444	-0.555338	0.088694	0.713732	0.638307	0.553907	-0.522175	0.096248	0.730498	0.303652	0.810450	-0.582211	0.268218	0.097638	0.121218	0.064572	0.249564	-1.283940	-1.427524	0.123423	-0.403831	-0.779998	-0.488154	-0.733702	-2.226269	-2.510584	-1.498654	0.167109	3.164050
97.000000	-1.837470	-1.481618	-0.004104	-0.039080	0.557666	-0.344963	-0.628230	0.016395	0.417355	0.665899	0.704528	-0.362911	0.039877	0.072863	0.245800	0.719719	-0.416988	0.397139	-0.002671	-0.209937	0.044773	0.133392	-0.229697	-1.228959	0.033100	-0.618261	-0.803466	-0.530566	-0.494533	-2.429346	-2.713871	-1.640669	0.088114	3.049436
98.000000	-1.780251	-1.360753	-0.087139	-0.007201	0.660256	-0.163580	-0.652799	-0.068805	0.179146	0.673910	0.740931	-0.319906	-0.057693	-0.420844	0.202179	0.266521	-0.476042	0.369610	-0.139657	-0.459222	0.013197	-0.007281	0.290265	-1.200670	-0.100741	-0.818002	-0.862435	-0.482547	-0.333459	-2.727620	-2.967722	-1.843938	0.056846	2.918729
99.000000	-1.661335	-1.252576	-0.150981	-0.011000	0.751987	0.014376	-0.692983	-0.140543	0.086178	0.660694	0.636273	-0.449364	-0.141737	-0.578111	0.177683	-0.232950	-0.772010	0.186532	-0.246349	-0.561549	-0.012132	-0.139024	0.170661	-1.306285	-0.204341	-0.953796	-0.929670	-0.400291	-0.205055	-3.081585	-3.242302	-2.059231	0.175637	2.887456
100.000000	-1.587628	-1.226098	-0.257668	-0.093051	0.794224	0.061990	-0.723587	-0.269545	0.055743	0.607852	0.407716	-0.566806	-0.258158	-0.511870	0.163211	-0.571990	-1.053010	-0.122418	-0.360003	-0.552318	-0.011932	-0.274703	-0.247791	-1.281836	-0.309272	-1.024112	-0.957434	-0.339684	-0.047903	-3.391051	-3.469115	-2.159210	0.379193	2.935546
101.000000	-1.684237	-1.326519	-0.494260	-0.269450	0.755786	-0.091839	-0.761365	-0.517554	0.032197	0.531133	0.142887	-0.666919	-0.489362	-0.260289	0.181016	-0.672950	-1.353650	-0.557409	-0.557899	-0.409726	0.032978	-0.440158	-0.605915	-1.147120	-0.505218	-1.021601	-0.936801	-0.367232	0.018764	-3.587571	-3.598024	-2.094868	0.564007	3.017668
102.000000	-2.017834	-1.571118	-0.844069	-0.539288	0.621972	-0.421030	-0.976144	-0.868455	-0.000919	0.466201	-0.020038	-0.964842	-0.831711	0.184867	0.241758	-0.471741	-1.873416	-1.047447	-0.853550	-0.107196	0.119090	-0.544312	-0.653767	-1.026080	-0.808969	-0.945034	-0.863731	-0.429126	-0.099323	-3.701385	-3.640806	-1.920456	0.588062	3.105213
103.000000	-2.491609	-1.884865	-1.255404	-0.859308	0.437040	-0.777598	-1.349761	-1.280893	-0.090511	0.409086	-0.040514	-1.387845	-1.245246	0.652997	0.317734	-0.101815	-2.404740	-1.504010	-1.236977	0.220828	0.211439	-0.504706	-0.386983	-1.010605	-1.198039	-0.868597	-0.754774	-0.449908	-0.352405	-3.836470	-3.679333	-1.763508	0.424718	3.158951
104.000000	-2.876314	-2.163952	-1.581792	-1.096778	0.280778	-0.997550	-1.625853	-1.603123	-0.234687	0.339338	-0.057504	-1.609936	-1.582025	0.818447	0.365854	0.141226	-2.542178	-1.758736	-1.581483	0.319450	0.278422	-0.370354	-0.055163	-1.091440	-1.553853	-0.898255	-0.646632	-0.397050	-0.582239	-4.019012	-3.741540	-1.693700	0.143633	3.206485
105.000000	-2.992050	-2.321249	-1.642966	-1.133891	0.185659	-1.000875	-1.646395	-1.656476	-0.354528	0.271340	-0.159926	-1.513793	-1.660387	0.505805	0.371517	0.067188	-2.276498	-1.645413	-1.705654	0.054668	0.306838	-0.232749	0.140950	-1.111837	-1.703263	-1.070573	-0.557177	-0.261648	-0.627561	-4.197774	-3.785227	-1.656591	-0.174575	3.253368
106.000000	-2.875677	-2.300485	-1.459792	-1.048978	0.116411	-0.873988	-1.466965	-1.458110	-0.429511	0.217908	-0.266534	-1.196585	-1.493557	-0.078574	0.352831	-0.215005	-1.803758	-1.283595	-1.584369	-0.428091	0.316445	-0.110256	0.312971	-0.959754	-1.607999	-1.301985	-0.469241	-0.062041	-0.440836	-4.328498	-3.767208	-1.553752	-0.479770	3.294196
107.000000	-2.744344	-2.212667	-1.206748	-1.073347	0.006374	-0.794273	-1.238316	-1.189893	-0.529938	0.161672	-0.269511	-0.824504	-1.247624	-0.588260	0.340285	-0.354401	-1.294014	-0.993484	-1.347950	-0.837864	0.359223	0.094972	0.721369	-0.599852	-1.372474	-1.447596	-0.346659	0.219609	-0.093160	-4.399711	-3.680036	-1.337659	-0.785693	3.395829
108.000000	-2.759696	-2.217596	-1.025646	-1.302249	-0.177054	-0.864125	-1.074342	-1.002247	-0.679777	0.095754	-0.127545	-0.608326	-1.057793	-0.821668	0.361378	-0.125279	-0.998189	-0.926621	-1.123999	-0.969778	0.469113	0.456643	1.352666	-0.210504	-1.113109	-1.420118	-0.184323	0.563369	0.215021	-4.438035	-3.571924	-1.088252	-1.025317	3.589302
109.000000	-2.888266	-2.320507	-0.937351	-1.599323	-0.398164	-1.035632	-1.021582	-0.907958	-0.812533	0.038799	0.086462	-0.646796	-0.942833	-0.770332	0.415821	0.351447	-0.922395	-0.963190	-0.955410	-0.830979	0.633743	0.920710	1.992733	-0.163221	-0.898926	-1.263540	-0.017657	0.874427	0.278110	-4.453403	-3.499151	-0.946094	-1.107138	3.803926
110.000000	-3.028479	-2.422543	-0.896749	-1.822453	-0.593707	-1.156163	-1.044130	-0.870782	-0.879657	-0.019441	0.254299	-0.780377	-0.879549	-0.642953	0.463171	0.750658	-0.859669	-0.927102	-0.851883	-0.635019	0.794777	1.347948	2.500585	-0.486344	-0.767624	-1.111802	0.130536	1.123457	0.152053	-4.402425	-3.433969	-0.895465	-1.063026	3.959067
111.000000	-3.144485	-2.466204	-0.894839	-1.954590	-0.722829	-1.160450	-1.101278	-0.891398	-0.896910	-0.098422	0.366345	-0.833308	-0.882327	-0.660495	0.466799	0.939840	-0.671906	-0.781505	-0.837690	-0.585399	0.895568	1.616205	2.770759	-0.756516	-0.744771	-1.057732	0.256030	1.350905	0.053814	-4.264005	-3.328606	-0.808530	-0.976017	4.061982
112.000000	-3.187446	-2.471631	-0.937829	-2.015614	-0.771220	-1.097319	-1.156999	-0.952113	-0.910589	-0.189233	0.402776	-0.772506	-0.950163	-0.832078	0.431371	1.006450	-0.267678	-0.666646	-0.926713	-0.707850	0.927461	1.658873	2.695475	-0.736199	-0.837601	-1.113272	0.339848	1.508964	-0.003495	-4.114035	-3.226764	-0.690141	-0.936028	4.170890
113.000000	-3.136019	-2.485833	-1.031596	-2.031781	-0.743016	-0.990692	-1.207233	-1.032832	-0.969950	-0.279990	0.348580	-0.703655	-1.064918	-1.052727	0.381249	1.078639	0.170776	-0.711642	-1.089164	-0.928756	0.903109	1.510344	2.216914	-0.590436	-1.014746	-1.257921	0.361768	1.528347	-0.122123	-4.057322	-3.203278	-0.679243	-0.920111	4.289199
114.000000	-3.057043	-2.568734	-1.171199	-2.027776	-0.671222	-0.885517	-1.386117	-1.136958	-1.057569	-0.351793	0.277966	-0.826022	-1.207398	-1.216492	0.328012	1.198175	0.332506	-0.856134	-1.258432	-1.137447	0.841504	1.319343	1.352090	-0.580015	-1.200363	-1.424034	0.343209	1.459890	-0.268503	-4.084129	-3.253452	-0.833742	-0.748381	4.298515
115.000000	-2.999439	-2.690365	-1.326269	-1.988323	-0.592342	-0.847615	-1.680402	-1.274899	-1.095211	-0.395477	0.160991	-1.082205	-1.357455	-1.259103	0.258497	1.128012	0.240200	-1.030512	-1.406557	-1.244460	0.762419	1.175376	0.262770	-0.848463	-1.357180	-1.513104	0.333846	1.402617	-0.310282	-4.082332	-3.268439	-0.995817	-0.511284	4.052928
116.000000	-2.988547	-2.723491	-1.500672	-1.931399	-0.524698	-0.797312	-1.818221	-1.464539	-1.092507	-0.426871	-0.041204	-1.171351	-1.529714	-1.203018	0.171384	0.679861	0.093496	-1.210017	-1.562640	-1.244942	0.675436	1.054006	-0.823367	-1.283431	-1.522282	-1.507163	0.353315	1.400925	-0.223123	-3.977607	-3.140671	-0.945698	-0.480324	3.582895
117.000000	-3.031514	-2.686395	-1.694637	-1.916455	-0.490748	-0.691531	-1.784381	-1.670047	-1.130744	-0.471760	-0.231174	-1.098939	-1.721302	-1.094712	0.086590	0.094537	-0.095722	-1.318377	-1.727160	-1.163608	0.604423	0.972260	-1.844664	-1.660639	-1.703560	-1.451093	0.404158	1.444021	-0.165527	-3.809777	-2.901719	-0.683356	-0.601604	3.066098
118.000000	-3.105673	-2.714817	-1.862991	-1.967855	-0.497819	-0.654415	-1.838880	-1.830634	-1.243674	-0.520886	-0.260734	-1.116818	-1.887875	-0.954897	0.016247	-0.111973	-0.296813	-1.372258	-1.864528	-1.021177	0.570653	1.038487	-2.824691	-1.913025	-1.854957	-1.371032	0.481572	1.507598	-0.254090	-3.704954	-2.721126	-0.434903	-0.618902	2.659801
119.000000	-3.163529	-2.818343	-1.948715	-2.051738	-0.524872	-0.753988	-2.014971	-1.907902	-1.380234	-0.554917	-0.145834	-1.237952	-1.968613	-0.828315	-0.033481	0.267321	-0.354485	-1.441693	-1.932257	-0.865130	0.561845	1.303593	-3.625475	-2.196065	-1.918615	-1.290572	0.558353	1.588590	-0.431588	-3.707414	-2.676794	-0.340974	-0.403727	2.474107
120.000000	-3.136155	-2.902395	-1.871172	-2.077830	-0.562031	-0.942400	-2.158106	-1.825056	-1.418141	-0.582696	-0.120973	-1.378126	-1.876315	-0.761702	-0.058607	0.796746	-0.332742	-1.553068	-1.862983	-0.767439	0.558687	1.641430	-4.043892	-2.548398	-1.827211	-1.216912	0.620638	1.687996	-0.575264	-3.743322	-2.689517	-0.380220	-0.039595	2.528105
121.000000	-3.023465	-2.886342	-1.649276	-2.022806	-0.607106	-1.081465	-2.133049	-1.605623	-1.343029	-0.590666	-0.227567	-1.443856	-1.644859	-0.796888	-0.070329	1.008020	-0.392742	-1.711318	-1.663885	-0.777300	0.555486	1.832560	-3.978400	-2.641849	-1.605005	-1.152206	0.677436	1.743667	-0.591474	-3.771490	-2.713031	-0.521431	0.276206	2.751045
122.000000	-2.900920	-2.754276	-1.435845	-1.948303	-0.639811	-1.067687	-1.915872	-1.411532	-1.262922	-0.581015	-0.277673	-1.356602	-1.437021	-0.982431	-0.094144	0.926796	-0.545946	-1.789163	-1.473802	-0.919234	0.553367	1.795477	-3.395828	-2.272316	-1.416848	-1.147967	0.733955	1.721758	-0.433969	-3.789903	-2.725070	-0.681190	0.388913	3.012746
123.000000	-2.797102	-2.522971	-1.300652	-1.863617	-0.659329	-0.952814	-1.578079	-1.286505	-1.194926	-0.580871	-0.243823	-1.146918	-1.311447	-1.189577	-0.130210	0.706692	-0.757889	-1.697266	-1.379722	-1.114897	0.560945	1.604373	-2.436789	-1.721600	-1.345573	-1.216864	0.789540	1.663822	-0.165360	-3.788780	-2.697040	-0.774750	0.285331	3.152261
124.000000	-2.731243	-2.229517	-1.210929	-1.768096	-0.702740	-0.862854	-1.242587	-1.191460	-1.076022	-0.594287	-0.249709	-0.875957	-1.239372	-1.173592	-0.157366	0.368019	-0.945091	-1.557674	-1.343631	-1.168250	0.593773	1.369469	-1.403382	-1.350625	-1.322296	-1.252771	0.860106	1.622419	0.110789	-3.759980	-2.625337	-0.825323	0.078383	3.144733
125.000000	-2.753669	-2.006422	-1.147350	-1.678488	-0.790450	-0.927329	-1.219863	-1.138237	-0.910204	-0.624224	-0.311038	-0.832382	-1.197255	-0.958598	-0.166589	0.136820	-1.018249	-1.542495	-1.320621	-1.047467	0.653066	1.267132	-0.514449	-1.244058	-1.304264	-1.192670	0.957039	1.673547	0.399123	-3.724330	-2.524933	-0.864997	-0.045050	3.095093
126.000000	-2.851140	-1.963472	-1.077452	-1.595941	-0.901479	-1.162443	-1.584669	-1.084780	-0.775514	-0.668623	-0.322839	-1.169559	-1.134279	-0.801677	-0.148239	0.342313	-0.961940	-1.679633	-1.271699	-0.918157	0.718797	1.402838	0.163077	-1.258967	-1.256958	-1.091592	1.049719	1.825933	0.690445	-3.694476	-2.428854	-0.887866	0.000672	3.063492
127.000000	-2.957560	-2.069162	-1.002584	-1.551068	-1.005206	-1.404887	-1.910803	-1.008567	-0.718020	-0.712659	-0.284468	-1.462488	-1.045974	-0.799071	-0.108154	0.749853	-0.739269	-1.827964	-1.179111	-0.864234	0.765541	1.590533	0.591306	-1.173771	-1.162008	-0.989226	1.113359	1.940898	0.824784	-3.639030	-2.360578	-0.930683	-0.036300	3.063630
128.000000	-3.016527	-2.260405	-1.007117	-1.562570	-1.083281	-1.494268	-1.932582	-1.002673	-0.734258	-0.748417	-0.290244	-1.353357	-1.016310	-0.864796	-0.074549	0.813221	-0.291229	-1.894171	-1.110854	-0.842166	0.778354	1.586586	0.733021	-0.941682	-1.107733	-0.894804	1.157829	1.906387	0.669480	-3.573738	-2.340411	-1.067584	-0.374742	3.087344
129.000000	-3.021167	-2.501240	-1.143932	-1.625967	-1.119673	-1.410260	-1.797486	-1.127391	-0.839768	-0.767468	-0.295092	-0.989952	-1.112413	-0.984270	-0.057627	0.576675	0.295430	-1.974247	-1.175658	-0.851813	0.766844	1.466613	0.648461	-0.729292	-1.202193	-0.874110	1.177300	1.813192	0.313486	-3.572339	-2.369032	-1.292376	-0.756638	3.071042
130.000000	-3.003598	-2.736138	-1.397747	-1.753687	-1.108527	-1.243509	-1.696039	-1.369188	-1.053871	-0.772253	-0.192492	-0.653673	-1.340739	-1.200617	-0.054167	0.510886	0.767570	-2.196355	-1.411672	-0.945457	0.748321	1.466639	0.374307	-0.693984	-1.466928	-0.976093	1.162694	1.845651	-0.110923	-3.671345	-2.429667	-1.547940	-0.889100	2.950160
131.000000	-3.026080	-2.891672	-1.750172	-1.949390	-1.082635	-1.142864	-1.704269	-1.714128	-1.329766	-0.786925	-0.017806	-0.530777	-1.694499	-1.466326	-0.060515	0.758039	0.905038	-2.509944	-1.767136	-1.078807	0.739330	1.654695	-0.190634	-0.938498	-1.849363	-1.092906	1.143150	2.121880	-0.569626	-3.827786	-2.504421	-1.805901	-0.806948	2.782192
132.000000	-3.126374	-2.947442	-2.152079	-2.163647	-1.069648	-1.192427	-1.882130	-2.103604	-1.549963	-0.808126	0.137097	-0.744422	-2.107113	-1.667798	-0.067240	1.064869	0.650412	-2.836967	-2.147747	-1.126328	0.755234	1.886587	-1.011607	-1.584701	-2.253366	-1.062127	1.136888	2.472054	-0.993435	-3.958860	-2.578832	-2.098686	-0.633413	2.699545
133.000000	-3.215108	-2.913205	-2.445089	-2.312762	-1.043392	-1.310753	-2.150269	-2.379830	-1.644021	-0.806502	0.219230	-1.172935	-2.399994	-1.746707	-0.074665	1.174771	0.086280	-3.128485	-2.404082	-1.069135	0.771389	1.944503	-1.715913	-2.500280	-2.512734	-0.904225	1.118057	2.422260	-1.195068	-4.030617	-2.665838	-2.486415	-0.456012	2.768360
134.000000	-3.214410	-2.791121	-2.489196	-2.346765	-0.979223	-1.358601	-2.221432	-2.418807	-1.624357	-0.775314	0.142993	-1.419582	-2.443576	-1.723141	-0.088449	1.014666	-0.528548	-3.233166	-2.421564	-1.017175	0.761638	1.796184	-2.078494	-3.218175	-2.501931	-0.809375	1.067672	1.915752	-1.118034	-4.054899	-2.774043	-2.927652	-0.360009	2.924909
135.000000	-3.204304	-2.709522	-2.367934	-2.283558	-0.908112	-1.323600	-2.095822	-2.303030	-1.538963	-0.739618	-0.075583	-1.433992	-2.321331	-1.653611	-0.098213	0.687065	-0.854832	-3.161092	-2.285841	-1.013656	0.736792	1.569762	-2.337226	-3.521307	-2.325281	-0.857857	1.006325	1.458524	-1.089230	-4.040332	-2.887946	-3.354678	-0.334727	3.025363
136.000000	-3.291565	-2.867689	-2.264341	-2.207812	-0.888112	-1.324462	-2.132154	-2.215445	-1.454729	-0.712899	-0.207301	-1.651827	-2.211652	-1.590465	-0.076593	0.463178	-0.980942	-3.087508	-2.191870	-1.012240	0.709090	1.364001	-2.719270	-3.657781	-2.204543	-0.939725	0.964706	1.323496	-1.369042	-4.020689	-2.997978	-3.775302	-0.222408	3.053710
137.000000	-3.480172	-3.275939	-2.219359	-2.195896	-0.932824	-1.404109	-2.437515	-2.197876	-1.396918	-0.675100	-0.134493	-2.098187	-2.169300	-1.547289	-0.013704	0.514587	-1.171338	-3.060995	-2.188662	-0.993156	0.697047	1.247591	-2.967998	-3.856148	-2.208512	-0.968602	0.946528	1.276357	-1.709053	-4.016554	-3.087395	-4.175629	0.031137	3.072290
138.000000	-3.682712	-3.709068	-2.171176	-2.222507	-1.001167	-1.473520	-2.702906	-2.176356	-1.343282	-0.625080	-0.050539	-2.271948	-2.136207	-1.495346	0.057704	0.664454	-1.425590	-3.085453	-2.195986	-0.950046	0.717011	1.225293	-2.724206	-4.062986	-2.256003	-0.945916	0.943463	1.001003	-1.804807	-4.034922	-3.155005	-4.544530	0.207221	3.082818
139.000000	-3.807439	-3.982229	-2.143782	-2.242782	-1.065253	-1.543398	-2.799017	-2.164947	-1.288377	-0.583480	-0.090437	-2.169228	-2.132394	-1.393179	0.110743	0.769115	-1.898708	-3.231091	-2.224881	-0.876541	0.769330	1.247297	-2.211871	-4.184348	-2.325893	-0.896019	0.954511	0.581982	-1.746827	-4.131799	-3.245922	-4.909615	0.139263	3.103584
140.000000	-3.879021	-4.144614	-2.255815	-2.280458	-1.123136	-1.665176	-2.957216	-2.283049	-1.234911	-0.560718	-0.096549	-2.257473	-2.273048	-1.196172	0.166664	0.971486	-2.683324	-3.556752	-2.377898	-0.748198	0.838064	1.170042	-1.855948	-4.287133	-2.501727	-0.847806	0.956471	0.241699	-1.750285	-4.322436	-3.372059	-5.233677	-0.105368	3.122315
141.000000	-3.997322	-4.292822	-2.524276	-2.353904	-1.175024	-1.766250	-3.245378	-2.555380	-1.157559	-0.547154	-0.033312	-2.577069	-2.564714	-0.874982	0.236177	1.237400	-3.501190	-3.979728	-2.650751	-0.511916	0.899376	0.866716	-1.778034	-4.518964	-2.777206	-0.780526	0.938846	-0.023521	-1.845793	-4.499895	-3.444940	-5.423834	-0.405465	3.060498
142.000000	-4.201124	-4.445181	-2.824646	-2.447544	-1.231596	-1.801027	-3.534084	-2.854062	-1.062545	-0.531174	-0.031551	-2.868275	-2.874331	-0.528865	0.296344	1.323912	-4.004875	-4.397188	-2.927691	-0.209153	0.950771	0.518768	-1.957597	-4.886683	-3.046644	-0.675383	0.935252	-0.195960	-1.963058	-4.544027	-3.381036	-5.443386	-0.577981	2.929350
143.000000	-4.469501	-4.599859	-3.038373	-2.525900	-1.303528	-1.848403	-3.740580	-3.048716	-0.992388	-0.519558	-0.097059	-3.007731	-3.081159	-0.340927	0.340607	1.224444	-4.021772	-4.812246	-3.119195	0.002422	1.007712	0.375957	-2.370083	-5.252846	-3.230935	-0.568205	0.962921	-0.240129	-2.149084	-4.448790	-3.231200	-5.407525	-0.560361	2.818740
144.000000	-4.760783	-4.749022	-3.131336	-2.559634	-1.379168	-1.947975	-3.833165	-3.116448	-0.957397	-0.519074	-0.224460	-2.981945	-3.154342	-0.319424	0.377461	0.977325	-3.692587	-5.123410	-3.200332	0.062326	1.078151	0.449078	-2.952892	-5.623540	-3.296126	-0.471537	1.001707	-0.224436	-2.511993	-4.293655	-3.098698	-5.503200	-0.467581	2.783322
145.000000	-4.977911	-4.834248	-3.125164	-2.533240	-1.423540	-2.019505	-3.814904	-3.102860	-0.913198	-0.529240	-0.435993	-2.877226	-3.134133	-0.302805	0.396725	0.436661	-3.278783	-5.209768	-3.201932	0.071854	1.140561	0.571294	-3.572533	-6.110442	-3.280029	-0.373557	1.026815	-0.236469	-3.008200	-4.178084	-3.058289	-5.806397	-0.278260	2.804534
146.000000	-5.012787	-4.772268	-3.057487	-2.434348	-1.402326	-2.020545	-3.747113	-3.044967	-0.845196	-0.542529	-0.709125	-2.808560	-3.076441	-0.302938	0.374731	-0.418112	-2.959059	-5.195571	-3.180646	0.060930	1.152363	0.509173	-4.141316	-6.582960	-3.246556	-0.314562	1.027595	-0.361488	-3.465397	-4.168865	-3.136914	-6.233801	0.031549	2.810295
147.000000	-4.903606	-4.595594	-2.976945	-2.288905	-1.323504	-1.967838	-3.740222	-2.982354	-0.811160	-0.537816	-0.962782	-2.805463	-3.021202	-0.440678	0.324708	-1.283853	-2.760119	-5.202719	-3.167186	-0.026784	1.103702	0.193535	-4.585119	-6.743976	-3.219053	-0.335027	0.998796	-0.626063	-3.764796	-4.223936	-3.259780	-6.621789	0.264046	2.780048
148.000000	-4.800939	-4.496718	-2.926010	-2.164775	-1.245325	-1.947921	-3.871608	-2.949450	-0.835979	-0.518614	-1.119548	-2.889241	-2.991723	-0.644029	0.295806	-1.816233	-2.685635	-5.167666	-3.165962	-0.162175	1.036487	-0.235844	-4.786767	-6.565068	-3.202307	-0.395834	0.949520	-0.973024	-3.997829	-4.273263	-3.342710	-6.883767	0.285856	2.686814
149.000000	-4.764967	-4.555031	-2.934010	-2.122274	-1.207293	-2.075949	-4.081414	-2.962180	-0.893434	-0.511807	-1.184531	-3.126240	-3.004606	-0.791258	0.309378	-1.925877	-2.817555	-5.118296	-3.183671	-0.273760	0.994973	-0.618174	-4.713297	-6.314317	-3.209417	-0.446872	0.897914	-1.281015	-4.373802	-4.334309	-3.412704	-7.091648	0.251043	2.451271
150.000000	-4.770973	-4.643817	-3.005127	-2.172615	-1.200820	-2.321430	-4.281708	-3.017266	-0.955774	-0.501180	-1.221800	-3.507187	-3.053324	-0.806203	0.346480	-1.766189	-3.149649	-5.210315	-3.210910	-0.307531	0.984829	-0.839578	-4.507390	-6.150886	-3.245084	-0.473135	0.854340	-1.364318	-4.908535	-4.432299	-3.548929	-7.358196	0.334391	2.112873
151.000000	-4.813324	-4.705751	-3.107600	-2.304036	-1.202065	-2.520074	-4.457735	-3.099492	-0.973979	-0.463514	-1.291952	-3.913765	-3.127743	-0.615675	0.391348	-1.595694	-3.636893	-5.443803	-3.257056	-0.227019	0.985190	-0.927638	-4.373832	-6.075752	-3.308526	-0.464932	0.810717	-1.306835	-5.367014	-4.559233	-3.772190	-7.722180	0.560643	1.875293
152.000000	-4.874662	-4.771883	-3.245242	-2.474365	-1.171242	-2.538912	-4.502925	-3.225476	-0.877681	-0.405330	-1.357722	-4.160300	-3.253278	-0.239377	0.433325	-1.477809	-4.215921	-5.716413	-3.384919	-0.074878	0.977873	-0.998375	-4.340714	-6.139771	-3.433968	-0.440519	0.737917	-1.530928	-5.544867	-4.699218	-4.018056	-8.144331	0.733421	1.863155
153.000000	-4.887052	-4.817176	-3.385918	-2.587578	-1.102726	-2.414931	-4.318099	-3.365397	-0.709545	-0.327609	-1.381693	-4.089232	-3.392737	0.106635	0.462719	-1.312450	-4.706169	-5.969722	-3.570249	0.033928	0.964790	-1.019750	-4.312677	-6.321303	-3.603054	-0.439646	0.640008	-2.040808	-5.448257	-4.767679	-4.144953	-8.452254	0.631062	1.986772
154.000000	-4.750234	-4.768981	-3.353791	-2.535012	-1.031378	-2.281371	-4.042723	-3.349987	-0.600325	-0.240847	-1.436890	-3.843576	-3.372656	0.129305	0.469592	-1.240329	-4.929569	-6.069056	-3.601549	0.034471	0.954038	-0.986791	-4.195212	-6.478204	-3.633533	-0.440858	0.561786	-2.430216	-5.246779	-4.653832	-4.040820	-8.457800	0.406503	2.160139
155.000000	-4.457266	-4.623786	-3.067542	-2.312559	-0.973810	-2.204467	-3.864339	-3.089146	-0.569424	-0.185152	-1.565508	-3.719176	-3.104759	-0.137152	0.444026	-1.480379	-4.835453	-5.905723	-3.348748	-0.020671	0.939738	-1.109286	-3.816617	-6.528087	-3.404405	-0.382278	0.529784	-2.653191	-5.126673	-4.354635	-3.744182	-8.198072	0.342526	2.391447
156.000000	-4.150713	-4.474778	-2.666759	-2.058951	-0.950472	-2.190436	-3.836165	-2.713396	-0.554467	-0.180295	-1.712555	-3.792822	-2.722967	-0.378553	0.416409	-1.871005	-4.604891	-5.553688	-2.952534	-0.030659	0.924446	-1.412675	-3.125516	-6.462792	-3.037167	-0.256946	0.534063	-2.832439	-5.171413	-3.985556	-3.385729	-7.855076	0.479816	2.640264
157.000000	-3.948922	-4.392169	-2.336844	-1.877440	-0.956839	-2.208545	-3.932603	-2.383484	-0.526965	-0.188949	-1.788737	-3.955092	-2.407354	-0.452103	0.409996	-2.086180	-4.369961	-5.237050	-2.613214	0.026325	0.908956	-1.717682	-2.485927	-6.398140	-2.721196	-0.138345	0.546842	-2.955317	-5.364435	-3.677207	-3.103525	-7.590013	0.610978	2.752278
