time	FP1	FP2	F7	F3	FZ	F4	F8	FT7	FC3	FCZ	FC4	FT8	T7	C3	CZ	C4	T8	M1	TP7	CP3	CPZ	CP4	TP8	M2	P7	P3	PZ	P4	P8	O1	OZ	O2	HEO	VEO	
-200.000000	0.825635	0.815872	-0.132299	0.188659	0.014377	-0.166803	-0.115260	-0.130081	-0.075541	-0.012726	-0.105585	-0.038184	-0.108441	-0.437607	-0.058459	-0.327751	-0.982457	0.318460	-0.095653	-0.224534	-0.093299	0.057813	-1.264746	0.592658	-0.112670	-0.015506	0.044082	0.231015	0.234148	0.113500	0.091286	0.101682	0.122977	-2.277565
-199.000000	0.817458	0.797319	-0.054869	0.189996	0.036949	-0.109265	-0.142313	-0.055948	-0.077218	-0.018613	-0.123469	-0.024066	-0.035917	-0.428710	-0.061579	-0.123125	-1.092260	0.397283	-0.061557	-0.263315	-0.107585	0.068733	-1.724495	0.333691	-0.078381	-0.062865	0.024630	0.207879	0.226617	0.046218	0.061719	0.092808	0.188083	-2.097938
-198.000000	0.771616	0.784745	-0.029945	0.155505	0.007711	-0.127437	-0.210383	-0.037942	-0.124270	-0.054230	-0.129368	-0.055657	-0.030397	-0.431574	-0.065810	0.215267	-0.896836	0.420532	-0.021553	-0.263752	-0.107939	0.222779	-1.657106	-0.074282	-0.034458	-0.048392	0.058099	0.237044	0.263706	0.084992	0.083771	0.172195	0.201281	-1.899243
-197.000000	0.657137	0.730436	-0.022827	0.109061	-0.078921	-0.255363	-0.343461	-0.049275	-0.176739	-0.108377	-0.117114	-0.214799	-0.043877	-0.399173	-0.062183	0.567794	-0.621765	0.424445	0.032000	-0.213073	-0.070133	0.486139	-1.066497	-0.390510	0.019088	0.039796	0.141104	0.344611	0.372470	0.205788	0.181311	0.298745	0.243035	-1.715141
-196.000000	0.527308	0.552013	-0.013374	0.102841	-0.186261	-0.399527	-0.507133	-0.048118	-0.180421	-0.156828	-0.091770	-0.463574	-0.046929	-0.284845	-0.054134	0.795649	-0.342948	0.448104	0.077755	-0.109529	-0.001337	0.695362	-0.169600	-0.346116	0.062604	0.186410	0.240395	0.488802	0.576414	0.331574	0.313409	0.401687	0.297029	-1.547792
-195.000000	0.466231	0.251400	0.007225	0.164850	-0.272570	-0.441888	-0.568395	-0.008092	-0.124997	-0.178024	-0.152352	-0.600330	-0.021433	-0.056112	-0.044804	0.681568	-0.038236	0.527928	0.096012	0.075196	0.054476	0.705728	0.843969	0.102220	0.085926	0.349291	0.317374	0.607538	0.923467	0.411631	0.426077	0.484337	0.278517	-1.409345
-194.000000	0.481296	-0.061360	0.055470	0.268863	-0.315073	-0.383715	-0.471065	0.069908	-0.001591	-0.176613	-0.345436	-0.469919	0.049321	0.303280	-0.049286	0.119238	0.281146	0.632426	0.099926	0.367130	0.081861	0.458880	1.711401	0.719638	0.101493	0.506796	0.364359	0.607519	1.306677	0.440431	0.490364	0.558937	0.163060	-1.302473
-193.000000	0.511023	-0.254290	0.086751	0.367064	-0.329733	-0.313611	-0.294514	0.127882	0.167597	-0.174085	-0.539552	-0.140976	0.105082	0.704380	-0.062109	-0.586815	0.595172	0.661780	0.070554	0.683252	0.096314	0.029859	2.153921	1.245929	0.090369	0.641812	0.391842	0.456140	1.524979	0.431433	0.513026	0.637214	-0.046620	-1.227005
-192.000000	0.543016	-0.318840	0.082662	0.468229	-0.332545	-0.250931	-0.146225	0.145632	0.321819	-0.172337	-0.594332	0.180187	0.114846	0.996860	-0.060699	-1.009796	0.794639	0.641434	0.023890	0.901507	0.120446	-0.357585	2.151554	1.470894	0.064473	0.718986	0.393243	0.246880	1.535096	0.414768	0.518250	0.716186	-0.308406	-1.199314
-191.000000	0.559212	-0.345493	0.066193	0.544937	-0.321124	-0.201629	-0.123606	0.127168	0.434717	-0.149343	-0.516026	0.256618	0.099259	1.143713	-0.041485	-1.004440	0.598509	0.596073	0.009370	0.987590	0.160672	-0.539459	1.921456	1.286715	0.052646	0.755390	0.362609	0.072078	1.394024	0.422359	0.502112	0.697730	-0.533723	-1.229437
-190.000000	0.534700	-0.327386	0.030999	0.526999	-0.305730	-0.195249	-0.231271	0.083899	0.481009	-0.114230	-0.415782	-0.001112	0.067347	1.160479	-0.014375	-0.689101	-0.075832	0.433275	0.017458	0.957217	0.208000	-0.484014	1.749380	0.932256	0.046921	0.774402	0.320105	0.003693	1.191990	0.435205	0.433267	0.489789	-0.701898	-1.265407
-189.000000	0.545529	-0.156047	0.066476	0.481619	-0.291461	-0.210888	-0.346347	0.126457	0.452612	-0.102317	-0.416735	-0.345619	0.113166	0.982761	-0.008685	-0.442975	-0.810366	0.225382	0.095502	0.833609	0.258016	-0.289779	1.775287	0.754634	0.113099	0.762891	0.300146	0.067316	1.067688	0.474771	0.351155	0.200864	-0.822695	-1.221247
-188.000000	0.644177	0.146973	0.224163	0.486511	-0.268519	-0.194177	-0.362099	0.273636	0.385508	-0.111696	-0.524845	-0.474613	0.266712	0.618545	-0.040446	-0.557364	-1.154620	0.146920	0.272505	0.653371	0.282375	-0.183847	1.872342	0.773049	0.281239	0.716793	0.308965	0.149997	1.036592	0.567267	0.337998	0.041983	-0.832086	-1.089598
-187.000000	0.713745	0.408534	0.343579	0.496481	-0.239961	-0.180544	-0.327204	0.372253	0.307201	-0.118042	-0.613779	-0.440383	0.372136	0.243866	-0.085207	-0.762852	-1.116683	0.212889	0.415376	0.478662	0.254101	-0.204797	1.865203	0.887487	0.418418	0.654515	0.325168	0.173098	0.979518	0.653825	0.397264	0.079939	-0.731646	-0.909938
-186.000000	0.625032	0.530167	0.307160	0.467090	-0.222455	-0.285313	-0.366078	0.337898	0.214999	-0.132859	-0.589940	-0.463222	0.329328	-0.011453	-0.109311	-0.675054	-0.970117	0.315741	0.409888	0.362709	0.193782	-0.218374	1.691803	1.029777	0.421225	0.602446	0.331766	0.169935	0.835684	0.674525	0.471020	0.231232	-0.607152	-0.675202
-185.000000	0.418538	0.569384	0.155335	0.386555	-0.227307	-0.459749	-0.476163	0.191906	0.107410	-0.161720	-0.485065	-0.531976	0.171111	-0.145356	-0.102534	-0.369285	-0.854301	0.316888	0.263624	0.301938	0.141719	-0.217386	1.403897	1.045494	0.299206	0.557880	0.329841	0.166276	0.692108	0.637056	0.537875	0.394327	-0.501888	-0.411196
-184.000000	0.202905	0.576173	-0.026496	0.277989	-0.252375	-0.557423	-0.536750	0.006382	0.035794	-0.196264	-0.445336	-0.508718	-0.027954	-0.154084	-0.088221	-0.264216	-0.821412	0.223219	0.062906	0.282079	0.112825	-0.292059	1.012899	0.919894	0.115142	0.530270	0.340596	0.148585	0.661229	0.611739	0.613308	0.535778	-0.465292	-0.214391
-183.000000	0.047640	0.497162	-0.158949	0.176823	-0.288625	-0.578702	-0.535069	-0.122138	0.044993	-0.244100	-0.531621	-0.445601	-0.182698	-0.043267	-0.086679	-0.460379	-0.901672	0.215856	-0.083441	0.309964	0.099247	-0.440074	0.467794	0.787602	-0.042267	0.555363	0.375304	0.087816	0.695543	0.606812	0.654231	0.615569	-0.462289	-0.136597
-182.000000	-0.040152	0.273940	-0.245370	0.053287	-0.324873	-0.601521	-0.568572	-0.204180	0.073698	-0.301338	-0.618663	-0.494067	-0.281190	0.092347	-0.079011	-0.564753	-1.094147	0.264654	-0.168254	0.357380	0.109734	-0.525815	-0.137226	0.683858	-0.153198	0.598720	0.403884	-0.000510	0.657079	0.535142	0.586717	0.544876	-0.382184	-0.169734
-181.000000	-0.087712	-0.107640	-0.310297	-0.075432	-0.359610	-0.629816	-0.680236	-0.289297	0.053615	-0.345342	-0.618480	-0.675326	-0.344160	0.176219	-0.044469	-0.380555	-1.478190	0.212651	-0.227456	0.381519	0.153046	-0.495588	-0.594630	0.507193	-0.228731	0.612665	0.404080	-0.097432	0.483018	0.387922	0.423082	0.344152	-0.210962	-0.283690
-180.000000	-0.089407	-0.568610	-0.330964	-0.124806	-0.413419	-0.675976	-0.847421	-0.339619	0.025647	-0.354245	-0.610190	-0.896580	-0.350738	0.229014	0.006773	-0.119462	-1.964069	0.105783	-0.236366	0.390842	0.206410	-0.403791	-0.685881	0.241866	-0.241223	0.616531	0.406646	-0.183171	0.221970	0.274805	0.264121	0.134590	0.041764	-0.449943
-179.000000	-0.054906	-0.952668	-0.310710	-0.105763	-0.493702	-0.761823	-0.991187	-0.334034	0.017219	-0.346198	-0.687884	-1.026029	-0.316081	0.278353	0.055675	-0.040648	-2.227324	-0.003582	-0.196678	0.405446	0.258531	-0.235850	-0.337004	0.133386	-0.208262	0.614644	0.438027	-0.175126	-0.002485	0.236646	0.178669	-0.006743	0.326674	-0.676244
-178.000000	0.010499	-1.146945	-0.249267	-0.059567	-0.563157	-0.815753	-1.001897	-0.277764	0.003254	-0.323994	-0.794122	-0.954835	-0.261102	0.350858	0.084981	-0.142819	-1.973044	-0.129238	-0.132956	0.432746	0.321716	-0.015814	0.240891	0.280641	-0.156746	0.601118	0.478176	-0.062481	-0.119801	0.195164	0.128293	-0.083732	0.493775	-0.948829
-177.000000	0.082216	-1.151751	-0.174096	-0.032017	-0.594551	-0.826049	-0.906692	-0.203496	-0.012433	-0.285389	-0.802791	-0.746530	-0.205734	0.476512	0.098978	-0.145030	-1.178592	-0.208973	-0.077289	0.477607	0.381596	0.142515	0.739474	0.414154	-0.118473	0.583993	0.495574	0.031834	-0.182862	0.098099	0.061327	-0.168533	0.549184	-1.158962
-176.000000	0.079138	-1.041797	-0.155165	-0.083664	-0.604205	-0.837910	-0.849647	-0.181109	-0.041866	-0.271381	-0.670027	-0.584649	-0.201046	0.577465	0.122052	0.135913	-0.186055	-0.242224	-0.090881	0.500526	0.426701	0.281820	1.000683	0.309609	-0.154475	0.544689	0.482154	0.089597	-0.273982	-0.039453	-0.023370	-0.302054	0.631512	-1.205476
-175.000000	0.019779	-0.816952	-0.144854	-0.151830	-0.604272	-0.835057	-0.836020	-0.167255	-0.100760	-0.283631	-0.452677	-0.492205	-0.189163	0.510115	0.150127	0.521055	0.721960	-0.325350	-0.123807	0.437783	0.463072	0.443384	1.084701	0.041374	-0.200289	0.467036	0.454145	0.162885	-0.465083	-0.165595	-0.106869	-0.460181	0.780676	-1.115944
-174.000000	-0.015476	-0.475314	-0.070621	-0.143924	-0.606531	-0.811802	-0.752844	-0.090911	-0.145089	-0.291684	-0.269559	-0.338493	-0.092637	0.330841	0.160867	0.713625	1.476802	-0.445642	-0.079764	0.335561	0.475056	0.496715	1.058144	-0.224776	-0.147311	0.392517	0.445663	0.199131	-0.813324	-0.218571	-0.140033	-0.593130	0.959549	-0.973341
-173.000000	-0.062296	-0.163758	-0.018987	-0.104723	-0.624963	-0.773260	-0.600860	-0.026251	-0.151492	-0.287850	-0.240562	-0.102917	-0.009424	0.245462	0.161943	0.580704	1.903563	-0.570651	-0.026329	0.321681	0.459702	0.439394	0.771757	-0.460095	-0.064283	0.387664	0.463020	0.201517	-1.216134	-0.191226	-0.095839	-0.628457	0.998868	-0.836536
-172.000000	-0.170438	-0.017850	-0.067814	-0.108304	-0.644976	-0.701720	-0.463964	-0.053292	-0.164239	-0.285583	-0.369700	0.087292	-0.039063	0.282590	0.164439	0.200942	1.858300	-0.702955	-0.039458	0.410264	0.437071	0.392019	-0.050223	-0.621433	-0.046010	0.447865	0.480537	0.239870	-1.409988	-0.121031	-0.005364	-0.530017	0.779021	-0.754727
-171.000000	-0.287953	-0.009781	-0.149007	-0.146149	-0.640279	-0.611660	-0.350682	-0.131052	-0.207388	-0.297520	-0.543234	0.173167	-0.130432	0.282510	0.149124	-0.213626	1.428802	-0.784239	-0.078634	0.474066	0.408479	0.368515	-1.492514	-0.622989	-0.064172	0.496365	0.491155	0.295647	-1.287900	-0.028425	0.096073	-0.326482	0.436815	-0.758855
-170.000000	-0.368602	-0.074507	-0.214121	-0.186548	-0.610570	-0.546281	-0.256722	-0.213948	-0.263485	-0.306001	-0.650769	0.186106	-0.225067	0.143185	0.104153	-0.478117	0.771710	-0.809054	-0.129586	0.412833	0.370501	0.323766	-3.134009	-0.464109	-0.106311	0.483102	0.506416	0.303964	-1.007446	0.079331	0.192988	-0.087143	0.100870	-0.855054
-169.000000	-0.409367	-0.229056	-0.312151	-0.217200	-0.578752	-0.533296	-0.264497	-0.329319	-0.311987	-0.301690	-0.638196	0.074896	-0.351384	-0.045344	0.047292	-0.454166	0.097886	-0.776506	-0.233969	0.273626	0.334387	0.289889	-4.289742	-0.261139	-0.213802	0.416728	0.531459	0.269212	-0.747364	0.193976	0.283442	0.100444	-0.205821	-0.989611
-168.000000	-0.415721	-0.468585	-0.462977	-0.231510	-0.560482	-0.573384	-0.431122	-0.484612	-0.317370	-0.309677	-0.543052	-0.223335	-0.517355	-0.108058	0.014256	-0.164704	-0.364504	-0.692879	-0.390318	0.184690	0.318751	0.268316	-4.690032	-0.239847	-0.378022	0.344918	0.546225	0.183693	-0.607970	0.315813	0.345022	0.157903	-0.464419	-1.063644
-167.000000	-0.397907	-0.656718	-0.595787	-0.229140	-0.546176	-0.606082	-0.608477	-0.609973	-0.268859	-0.325132	-0.455993	-0.518783	-0.641631	-0.020939	0.013439	0.147340	-0.452079	-0.621768	-0.523790	0.194947	0.325148	0.172640	-4.484020	-0.443437	-0.520228	0.304970	0.532737	0.022510	-0.568894	0.450828	0.362736	0.086051	-0.679876	-1.032523
-166.000000	-0.335774	-0.649157	-0.588525	-0.215275	-0.518723	-0.582076	-0.576371	-0.593729	-0.219709	-0.327847	-0.463246	-0.527719	-0.608533	0.019717	0.010699	0.194251	-0.135965	-0.540911	-0.523097	0.224218	0.331174	0.006609	-3.851044	-0.664866	-0.521577	0.291104	0.508023	-0.111350	-0.491886	0.590964	0.384941	-0.006468	-0.841772	-0.887955
-165.000000	-0.255127	-0.484330	-0.416034	-0.201254	-0.496907	-0.522464	-0.355674	-0.419975	-0.191454	-0.332741	-0.569793	-0.289450	-0.408546	-0.081440	-0.011246	-0.098922	0.293646	-0.428363	-0.358137	0.213193	0.325015	-0.129548	-2.976606	-0.777181	-0.346724	0.298662	0.508153	-0.115490	-0.340286	0.684550	0.442950	-0.025350	-0.922428	-0.651178
-164.000000	-0.260956	-0.325143	-0.226177	-0.211998	-0.506634	-0.472519	-0.158159	-0.230303	-0.161240	-0.348805	-0.670916	-0.074474	-0.191442	-0.167313	-0.031824	-0.482428	0.469932	-0.351895	-0.151111	0.197961	0.310665	-0.180257	-1.975602	-0.838781	-0.120187	0.319109	0.538458	-0.038811	-0.215436	0.692883	0.514778	0.036380	-0.941296	-0.417024
-163.000000	-0.359542	-0.272325	-0.122265	-0.263816	-0.544512	-0.464810	-0.098467	-0.121488	-0.144147	-0.374606	-0.722524	-0.015366	-0.075198	-0.147069	-0.026123	-0.758810	0.326194	-0.356731	-0.013989	0.202232	0.298684	-0.175747	-0.888436	-0.910595	0.044869	0.339229	0.570635	0.037603	-0.134890	0.665700	0.584906	0.145038	-0.973595	-0.271992
-162.000000	-0.450749	-0.280712	-0.077315	-0.358413	-0.603795	-0.481590	-0.109193	-0.077472	-0.170125	-0.403587	-0.726247	-0.031293	-0.044151	-0.096546	-0.004420	-0.882856	0.049758	-0.378095	0.035086	0.205772	0.300938	-0.142618	0.229613	-0.935634	0.110735	0.357023	0.608215	0.119823	0.020682	0.662694	0.652331	0.277931	-1.018255	-0.205877
-161.000000	-0.466666	-0.229415	-0.063389	-0.471421	-0.659808	-0.467678	-0.101537	-0.077639	-0.235933	-0.412372	-0.637150	-0.025142	-0.048876	-0.105999	0.009812	-0.784771	-0.196488	-0.275989	0.009830	0.174707	0.316186	-0.074948	1.201837	-0.845743	0.074322	0.333208	0.649996	0.219879	0.290022	0.658246	0.702521	0.410588	-0.928250	-0.121659
-160.000000	-0.398971	-0.092063	-0.059590	-0.543510	-0.680360	-0.397116	-0.075419	-0.089082	-0.300574	-0.398700	-0.455115	-0.013042	-0.063382	-0.183059	0.018781	-0.508172	-0.428672	-0.036552	-0.049423	0.096582	0.337649	-0.007096	1.724208	-0.614310	0.002538	0.231933	0.661580	0.294405	0.554563	0.586986	0.702524	0.467143	-0.694886	0.039107
-159.000000	-0.297335	0.013218	-0.048770	-0.539600	-0.666815	-0.325846	-0.098651	-0.079003	-0.320910	-0.379583	-0.274338	-0.080676	-0.064835	-0.252226	0.029106	-0.210401	-0.664007	0.236463	-0.082617	0.025137	0.359024	0.014116	1.713674	-0.206815	-0.034898	0.116201	0.637709	0.311747	0.701813	0.452167	0.661297	0.415044	-0.477707	0.234564
-158.000000	-0.233097	0.004956	-0.026895	-0.478013	-0.621904	-0.314433	-0.219408	-0.043996	-0.279874	-0.353640	-0.182968	-0.242306	-0.033116	-0.262126	0.034769	0.011992	-0.711650	0.461142	-0.061293	0.003805	0.369903	-0.001283	1.382483	0.281169	-0.031021	0.058216	0.587136	0.269952	0.665439	0.313958	0.608813	0.298270	-0.298435	0.406972
-157.000000	-0.252364	-0.100067	0.005421	-0.411712	-0.559720	-0.346730	-0.392850	-0.000701	-0.195563	-0.312798	-0.148561	-0.410612	0.014832	-0.219888	0.047498	0.192321	-0.479648	0.572818	-0.015272	0.012671	0.363553	-0.001036	0.984498	0.548507	-0.007799	0.039405	0.512222	0.197496	0.422640	0.193983	0.532090	0.127205	-0.075696	0.525152
-156.000000	-0.316613	-0.243687	0.039433	-0.367319	-0.506572	-0.386053	-0.521763	0.038296	-0.105705	-0.268370	-0.136526	-0.473532	0.052441	-0.153056	0.077734	0.326394	-0.171519	0.572950	0.028748	0.036742	0.345315	0.034321	0.616017	0.391390	0.019103	0.035042	0.428839	0.130420	0.069488	0.093863	0.425489	-0.089085	0.139651	0.593008
-155.000000	-0.331094	-0.328455	0.066862	-0.322106	-0.453610	-0.411303	-0.561945	0.083465	-0.027740	-0.221989	-0.155679	-0.400383	0.081781	-0.086900	0.102230	0.364815	0.088834	0.497253	0.073063	0.070846	0.322272	0.081917	0.162045	-0.073325	0.045492	0.045712	0.351380	0.066827	-0.274629	0.019411	0.308359	-0.312217	0.264331	0.622969
-154.000000	-0.297492	-0.330720	0.105986	-0.251115	-0.393757	-0.415272	-0.578375	0.149301	0.041607	-0.160092	-0.168073	-0.345630	0.130010	-0.016794	0.115101	0.384144	0.206749	0.355204	0.139597	0.102857	0.297072	0.166896	-0.495771	-0.600020	0.089790	0.067641	0.278656	0.005487	-0.582950	-0.029898	0.201550	-0.511178	0.400969	0.618384
-153.000000	-0.240100	-0.271591	0.193919	-0.135332	-0.339414	-0.406543	-0.589774	0.246392	0.119830	-0.098041	-0.206968	-0.374453	0.229824	0.086325	0.118924	0.288636	0.073248	0.156929	0.251611	0.138257	0.260912	0.291245	-1.208777	-0.977516	0.185701	0.115338	0.220490	-0.024148	-0.824820	-0.017081	0.170294	-0.594580	0.609711	0.548152
-152.000000	-0.141125	-0.150592	0.321802	0.014502	-0.279576	-0.388496	-0.550916	0.363360	0.213999	-0.069488	-0.343481	-0.364742	0.365618	0.204083	0.094701	-0.117740	-0.155454	-0.056242	0.384650	0.172801	0.204671	0.343355	-1.626968	-1.187691	0.320937	0.175095	0.184875	-0.017713	-0.914221	0.094880	0.263639	-0.456165	0.761802	0.344967
-151.000000	-0.034114	-0.032148	0.434413	0.148402	-0.199598	-0.397861	-0.480569	0.457870	0.287055	-0.079175	-0.514514	-0.274095	0.474535	0.275775	0.039840	-0.650672	-0.236471	-0.205446	0.472914	0.176403	0.130239	0.235313	-1.527571	-1.300098	0.424513	0.191171	0.159757	-0.013687	-0.777628	0.262948	0.425429	-0.128040	0.781273	0.064291
-150.000000	0.042189	-0.001658	0.500426	0.225462	-0.111963	-0.447461	-0.415561	0.510669	0.296664	-0.104393	-0.606778	-0.158175	0.523443	0.274633	-0.022716	-1.013724	-0.170224	-0.234827	0.496542	0.126912	0.033489	-0.010614	-1.022518	-1.226761	0.461728	0.137432	0.134679	-0.058385	-0.478479	0.398673	0.557482	0.240733	0.682118	-0.159165
-149.000000	0.126306	0.001588	0.550280	0.258740	-0.039439	-0.481461	-0.364316	0.561927	0.257591	-0.124043	-0.602199	-0.084842	0.556184	0.222108	-0.071479	-1.159696	-0.102576	-0.115230	0.516550	0.046080	-0.062304	-0.283758	-0.495549	-1.026079	0.494701	0.053498	0.110918	-0.179018	-0.263508	0.473837	0.612135	0.488828	0.557226	-0.288287
-148.000000	0.265201	0.058450	0.597761	0.280942	-0.006181	-0.504341	-0.315225	0.624795	0.213932	-0.128559	-0.560400	-0.134192	0.612172	0.151850	-0.092418	-1.155464	-0.110031	0.128379	0.548982	-0.011180	-0.123564	-0.443618	-0.207651	-0.858205	0.563834	-0.006335	0.098599	-0.306038	-0.257126	0.522721	0.612080	0.554176	0.553582	-0.341631
-147.000000	0.424059	0.087888	0.623737	0.296274	-0.019124	-0.534256	-0.266514	0.662850	0.166078	-0.117290	-0.536662	-0.295774	0.668831	0.066353	-0.084093	-1.057963	-0.221413	0.374867	0.567112	-0.033665	-0.151373	-0.470635	-0.055356	-0.716129	0.627756	-0.031977	0.103217	-0.358192	-0.319075	0.558990	0.586911	0.497217	0.658178	-0.391060
-146.000000	0.574004	0.050903	0.663419	0.331951	-0.060066	-0.555134	-0.249509	0.698073	0.124475	-0.090453	-0.548371	-0.439509	0.729351	-0.000249	-0.063612	-0.929923	-0.428208	0.538217	0.609230	-0.030968	-0.151136	-0.508532	0.111217	-0.606651	0.678477	-0.022807	0.123678	-0.391086	-0.346581	0.573150	0.541443	0.386520	0.733999	-0.518559
-145.000000	0.677812	0.023586	0.736690	0.399740	-0.115760	-0.590586	-0.282354	0.766731	0.140960	-0.064175	-0.560368	-0.485776	0.803891	0.023373	-0.038089	-0.786017	-0.661798	0.599323	0.688881	0.007937	-0.115818	-0.608739	0.275354	-0.502836	0.727565	0.013332	0.153849	-0.438222	-0.335030	0.571021	0.509799	0.307454	0.717846	-0.696863
-144.000000	0.631779	0.018535	0.765102	0.434358	-0.189074	-0.663997	-0.340832	0.801396	0.195747	-0.064148	-0.528038	-0.440754	0.814534	0.131746	0.008074	-0.586008	-0.820730	0.536551	0.724026	0.062305	-0.049486	-0.633397	0.351781	-0.363939	0.718549	0.042169	0.181000	-0.423734	-0.252083	0.560783	0.526409	0.342329	0.636917	-0.814668
-143.000000	0.419202	-0.025560	0.667671	0.395967	-0.281383	-0.753384	-0.432158	0.713025	0.243811	-0.081057	-0.443244	-0.407434	0.684306	0.311998	0.081778	-0.296082	-0.855788	0.373891	0.633730	0.130046	0.019162	-0.503180	0.267231	-0.268066	0.605189	0.047913	0.199604	-0.319674	-0.113205	0.521633	0.552020	0.441993	0.547087	-0.758556
-142.000000	0.152643	-0.154005	0.472204	0.310207	-0.370859	-0.823129	-0.581399	0.527113	0.320740	-0.077685	-0.300865	-0.503342	0.465462	0.592537	0.164400	0.139720	-0.758278	0.193787	0.442111	0.253700	0.075039	-0.246092	0.063504	-0.202277	0.426365	0.038442	0.206458	-0.175704	-0.019007	0.395910	0.501247	0.452835	0.494189	-0.519414
-141.000000	-0.049611	-0.325194	0.299752	0.234037	-0.416001	-0.842196	-0.695390	0.355219	0.450999	-0.050154	-0.145378	-0.623161	0.286194	0.886674	0.238234	0.586287	-0.588043	0.077837	0.266689	0.402575	0.104167	0.051072	-0.165056	-0.096910	0.268236	0.016998	0.177767	-0.078028	-0.092796	0.142421	0.289981	0.219448	0.432186	-0.210017
-140.000000	-0.158503	-0.467468	0.230028	0.206085	-0.381561	-0.765954	-0.655365	0.270343	0.576865	-0.028844	-0.072102	-0.540049	0.209802	0.988843	0.285192	0.711218	-0.450241	0.053407	0.180636	0.457581	0.082591	0.269528	-0.304750	0.058924	0.188057	-0.030409	0.096369	-0.065628	-0.330016	-0.150796	-0.026090	-0.214000	0.284731	0.088324
-139.000000	-0.246523	-0.581824	0.219869	0.210174	-0.272912	-0.619618	-0.533854	0.241840	0.642763	-0.020244	-0.116154	-0.295889	0.181138	0.859614	0.288092	0.429261	-0.462676	0.131630	0.150881	0.390783	0.014559	0.345386	-0.266749	0.195087	0.157291	-0.096666	-0.015180	-0.116934	-0.612887	-0.346022	-0.280177	-0.617461	0.075566	0.350954
-138.000000	-0.350190	-0.642218	0.197046	0.233975	-0.148951	-0.519380	-0.464967	0.214720	0.661216	-0.011156	-0.232247	-0.131130	0.147341	0.684963	0.264476	-0.035266	-0.664182	0.278451	0.121890	0.292851	-0.071239	0.324209	-0.094760	0.126939	0.115356	-0.153063	-0.115524	-0.192397	-0.872920	-0.405102	-0.397677	-0.843977	-0.149454	0.482525
-137.000000	-0.417221	-0.623714	0.175312	0.269679	-0.047139	-0.474833	-0.441923	0.197440	0.652809	0.016721	-0.325417	-0.120000	0.136372	0.597931	0.242199	-0.405553	-0.852083	0.351880	0.097823	0.228337	-0.136909	0.268979	0.087085	-0.173240	0.071360	-0.184668	-0.195060	-0.253156	-1.071874	-0.374995	-0.424092	-0.895635	-0.381305	0.410254
-136.000000	-0.401597	-0.568145	0.206260	0.294534	0.051527	-0.395329	-0.421452	0.221249	0.617707	0.078080	-0.331994	-0.200410	0.173333	0.581086	0.221069	-0.550964	-0.936985	0.317124	0.122160	0.210447	-0.170614	0.154816	0.138697	-0.482134	0.082828	-0.182674	-0.272596	-0.313233	-1.168526	-0.357747	-0.458176	-0.872092	-0.563368	0.203262
-135.000000	-0.311106	-0.469221	0.290256	0.301386	0.154316	-0.275016	-0.420538	0.296301	0.592630	0.159054	-0.269633	-0.316003	0.262837	0.576894	0.189625	-0.483051	-0.974557	0.243060	0.204708	0.222898	-0.187221	-0.043695	0.039398	-0.609472	0.168038	-0.159827	-0.343941	-0.403167	-1.127021	-0.379804	-0.500500	-0.816054	-0.594649	-0.048588
-134.000000	-0.188253	-0.304042	0.384791	0.292936	0.247656	-0.156121	-0.426633	0.388498	0.599456	0.236768	-0.192636	-0.384185	0.376884	0.564530	0.145652	-0.293181	-0.894924	0.092039	0.321361	0.247342	-0.184473	-0.322764	-0.158661	-0.544268	0.300866	-0.112536	-0.393307	-0.544014	-0.960618	-0.374967	-0.481838	-0.686948	-0.475917	-0.259871
-133.000000	-0.048877	-0.100484	0.410239	0.266290	0.314226	-0.062649	-0.399859	0.414376	0.589436	0.285068	-0.167272	-0.337588	0.425066	0.524166	0.089272	-0.187760	-0.701853	-0.150611	0.391897	0.262471	-0.170146	-0.602236	-0.379227	-0.379160	0.394224	-0.039458	-0.403498	-0.677809	-0.758052	-0.349125	-0.418602	-0.513683	-0.281471	-0.354683
-132.000000	0.062883	0.038795	0.305223	0.208022	0.328685	-0.030718	-0.372973	0.309905	0.528835	0.273079	-0.205459	-0.242563	0.326361	0.474282	0.037259	-0.251101	-0.525127	-0.346475	0.322389	0.263180	-0.168349	-0.738759	-0.508998	-0.184332	0.350394	0.026789	-0.365943	-0.701344	-0.594649	-0.316771	-0.316422	-0.305561	-0.069504	-0.359587
-131.000000	0.047649	-0.022019	0.082005	0.095480	0.276281	-0.066307	-0.405945	0.076156	0.438177	0.208109	-0.246722	-0.206869	0.076461	0.534176	0.025317	-0.296401	-0.433324	-0.398199	0.126935	0.334087	-0.163586	-0.669891	-0.581563	-0.029980	0.172206	0.097790	-0.301598	-0.605930	-0.469722	-0.245374	-0.156256	-0.024385	0.047283	-0.317256
-130.000000	-0.138881	-0.283491	-0.190212	-0.086373	0.146671	-0.167339	-0.532275	-0.200897	0.337564	0.124762	-0.236035	-0.303719	-0.226902	0.756538	0.071142	-0.133074	-0.504996	-0.358405	-0.103967	0.545961	-0.118278	-0.426620	-0.714868	-0.003044	-0.055299	0.209381	-0.217814	-0.453487	-0.367504	-0.147486	0.008893	0.265397	0.003997	-0.217525
-129.000000	-0.425873	-0.581367	-0.375442	-0.289285	-0.031361	-0.360445	-0.737288	-0.372975	0.225612	0.059133	-0.125367	-0.581557	-0.420671	0.973271	0.139964	0.336038	-0.741973	-0.224551	-0.258084	0.798150	-0.024265	-0.108150	-0.848234	-0.051478	-0.209093	0.340481	-0.108603	-0.297077	-0.276254	-0.060320	0.131045	0.446222	-0.129930	-0.072466
-128.000000	-0.670898	-0.728106	-0.397171	-0.418525	-0.177565	-0.594096	-0.902030	-0.383058	0.111061	0.025955	0.072538	-0.882163	-0.434387	0.944022	0.180666	0.999564	-0.853586	0.002254	-0.283579	0.902174	0.073614	0.078462	-0.769481	-0.104720	-0.235541	0.422816	-0.003101	-0.211083	-0.174493	0.000038	0.185235	0.457021	-0.297871	0.083883
-127.000000	-0.755198	-0.672809	-0.274692	-0.417669	-0.251824	-0.728973	-0.900137	-0.252767	0.039271	0.005680	0.239635	-0.945185	-0.295129	0.659387	0.185716	1.443615	-0.684509	0.228874	-0.198177	0.800967	0.135865	0.024159	-0.450514	-0.178443	-0.146994	0.437228	0.066107	-0.230759	-0.073496	0.043279	0.186328	0.342810	-0.390278	0.239466
-126.000000	-0.674601	-0.516432	-0.017764	-0.301040	-0.273239	-0.700063	-0.746370	0.016005	0.056470	-0.011376	0.274301	-0.769955	-0.014810	0.323079	0.171874	1.375133	-0.468892	0.467611	0.007554	0.605082	0.166290	-0.174622	-0.099605	-0.216287	0.077730	0.445702	0.101364	-0.285070	0.017160	0.125466	0.223264	0.260092	-0.236083	0.356702
-125.000000	-0.513809	-0.383450	0.290532	-0.160352	-0.272363	-0.600766	-0.594453	0.331006	0.140294	-0.043345	0.182362	-0.584267	0.328740	0.094003	0.157879	0.938605	-0.447056	0.761052	0.283308	0.436770	0.170598	-0.442085	0.127649	-0.136026	0.380591	0.501584	0.114483	-0.354101	0.110102	0.271651	0.325393	0.307365	0.178241	0.421206
-124.000000	-0.331860	-0.306919	0.515726	-0.075269	-0.265318	-0.510777	-0.507331	0.557661	0.213337	-0.095248	0.000920	-0.462646	0.589650	0.002583	0.147719	0.357979	-0.624882	1.028643	0.513460	0.346203	0.161165	-0.716125	0.232223	0.062938	0.621253	0.587853	0.117599	-0.437488	0.235096	0.420643	0.437067	0.425109	0.690237	0.526581
-123.000000	-0.141694	-0.237824	0.656884	-0.032491	-0.247632	-0.409275	-0.399953	0.697400	0.219921	-0.143974	-0.294818	-0.304659	0.743156	-0.017510	0.117003	-0.448627	-0.894232	1.175365	0.676039	0.325474	0.141430	-0.939514	0.256773	0.285943	0.763637	0.669491	0.130630	-0.482004	0.410171	0.548768	0.544188	0.567091	1.143190	0.701825
-122.000000	0.018866	-0.198310	0.777110	-0.003453	-0.229324	-0.324098	-0.310188	0.798769	0.163283	-0.177219	-0.649855	-0.193949	0.840790	-0.013401	0.057139	-1.395753	-1.186638	1.152129	0.811473	0.356919	0.104681	-1.099767	0.212988	0.517191	0.863794	0.740036	0.172185	-0.470643	0.589631	0.660371	0.650915	0.718715	1.470364	0.858021
-121.000000	0.105108	-0.260080	0.862236	0.008403	-0.223497	-0.292526	-0.310476	0.853609	0.092712	-0.184297	-0.897449	-0.216517	0.886858	0.048536	0.000264	-2.037717	-1.398757	1.012604	0.925207	0.442041	0.071551	-1.193390	0.122233	0.845356	0.948551	0.809594	0.223233	-0.438136	0.745015	0.709245	0.692953	0.786344	1.652254	0.958670
-120.000000	0.152266	-0.355833	0.871546	0.001608	-0.213324	-0.269885	-0.334630	0.853022	0.058544	-0.174931	-0.972523	-0.250670	0.882490	0.219205	-0.022978	-2.208924	-1.330616	0.884580	0.991437	0.590240	0.054669	-1.271719	0.026615	1.091974	0.998195	0.890801	0.236302	-0.458523	0.801810	0.674891	0.619787	0.682316	1.696622	0.995915
-119.000000	0.176379	-0.403341	0.788624	-0.023181	-0.184821	-0.221788	-0.367991	0.776189	0.067318	-0.150697	-0.913326	-0.246636	0.807487	0.472067	-0.014695	-2.060532	-0.876988	0.758134	0.959679	0.752518	0.047901	-1.312768	-0.021913	0.983978	0.958505	0.961893	0.199516	-0.545068	0.646670	0.599395	0.483183	0.472285	1.559685	0.883502
-118.000000	0.159839	-0.423034	0.668043	-0.032895	-0.137677	-0.162201	-0.463176	0.647578	0.083235	-0.103750	-0.746125	-0.256873	0.686945	0.608868	-0.000400	-1.710562	-0.315417	0.635375	0.861367	0.801776	0.048579	-1.175940	0.039501	0.679026	0.854288	0.968630	0.138077	-0.605706	0.341072	0.544869	0.376264	0.313917	1.219734	0.585010
-117.000000	0.163875	-0.345761	0.591711	0.015584	-0.079199	-0.114767	-0.545262	0.566335	0.093183	-0.055950	-0.511670	-0.272439	0.615512	0.502400	-0.004943	-1.243883	-0.029956	0.632742	0.808455	0.685873	0.050832	-0.842992	0.307013	0.557576	0.792357	0.887704	0.084143	-0.567153	0.039737	0.533954	0.336197	0.254326	0.816483	0.245325
-116.000000	0.227214	-0.079126	0.570631	0.096898	-0.014696	-0.086175	-0.492453	0.555794	0.110029	-0.024642	-0.304820	-0.254451	0.608268	0.281309	-0.032993	-0.781972	-0.056439	0.773661	0.816105	0.490092	0.050252	-0.418759	0.772716	0.686928	0.801020	0.755858	0.047689	-0.415920	-0.161724	0.529628	0.330508	0.242202	0.483313	0.008254
-115.000000	0.302789	0.274246	0.573706	0.150616	0.049732	-0.055937	-0.295088	0.563681	0.096357	-0.005107	-0.167313	-0.166819	0.625539	0.054817	-0.075324	-0.415284	-0.039414	0.949435	0.822884	0.303601	0.034291	-0.064821	1.208349	0.784828	0.833733	0.618344	0.025592	-0.216069	-0.221664	0.505830	0.332656	0.255592	0.251830	-0.092607
-114.000000	0.321615	0.498518	0.584247	0.128790	0.089822	0.005570	-0.041894	0.569013	0.015481	0.006086	-0.053238	0.009948	0.654034	-0.171545	-0.116894	-0.156379	0.357022	1.032908	0.806163	0.154856	0.004439	0.095822	1.307239	0.693958	0.846934	0.497611	0.027072	-0.062366	-0.150904	0.475601	0.341991	0.299348	0.129841	-0.057410
-113.000000	0.227606	0.473509	0.575559	0.020403	0.086086	0.096475	0.150710	0.555087	-0.107145	-0.006444	0.039011	0.228205	0.661209	-0.357567	-0.136757	-0.003671	0.936614	0.978177	0.776281	0.051661	-0.004400	0.155519	0.871617	0.561214	0.826419	0.418508	0.050671	0.055062	-0.020205	0.460145	0.354291	0.364481	0.021591	0.073519
-112.000000	0.046521	0.272892	0.542866	-0.108521	0.039883	0.206445	0.273734	0.526716	-0.208934	-0.032068	0.081001	0.463628	0.635458	-0.432179	-0.126497	0.053156	1.374930	0.820889	0.755229	0.007318	0.022006	0.174987	0.081322	0.462782	0.792387	0.393741	0.086614	0.127334	0.049886	0.478976	0.356845	0.415951	-0.190891	0.261081
-111.000000	-0.153250	0.026169	0.519161	-0.182160	-0.023214	0.302482	0.355596	0.518240	-0.241772	-0.041327	0.106487	0.680514	0.603514	-0.395149	-0.095359	0.078811	1.612643	0.621690	0.741283	0.009823	0.049858	0.116180	-0.614761	0.379426	0.758564	0.384497	0.118572	0.088621	-0.006627	0.503861	0.323612	0.382506	-0.425749	0.488811
-110.000000	-0.311276	-0.190577	0.496063	-0.179775	-0.080187	0.312866	0.370610	0.510296	-0.223718	-0.042235	0.163355	0.790395	0.559025	-0.315090	-0.053892	0.162103	1.656221	0.459228	0.696273	0.016778	0.060263	0.067553	-0.961006	0.340628	0.707547	0.335617	0.134079	0.009830	-0.083353	0.483800	0.247322	0.269382	-0.538097	0.657566
-109.000000	-0.346448	-0.325567	0.495338	-0.119455	-0.137665	0.232856	0.343577	0.503214	-0.181221	-0.054512	0.229861	0.777915	0.526634	-0.227848	-0.013902	0.294821	1.549428	0.494166	0.645720	0.016645	0.061862	0.138019	-0.961637	0.287169	0.651698	0.252831	0.151567	0.015038	-0.030915	0.439886	0.170955	0.181275	-0.511873	0.663702
-108.000000	-0.225811	-0.313775	0.556233	-0.053758	-0.199245	0.088992	0.324664	0.540367	-0.138194	-0.087422	0.243855	0.680412	0.550191	-0.177283	0.020039	0.405557	1.290572	0.763140	0.634135	0.004810	0.045358	0.293406	-0.748174	0.182353	0.630752	0.181432	0.179206	0.099225	0.147046	0.427776	0.143911	0.172560	-0.366718	0.544497
-107.000000	0.004676	-0.095133	0.634743	-0.017161	-0.252011	-0.086324	0.331963	0.606972	-0.127291	-0.131193	0.228320	0.537871	0.610688	-0.201516	0.051172	0.521649	0.771226	1.040519	0.647919	-0.035148	0.013306	0.391771	-0.411914	0.081613	0.648953	0.145142	0.200839	0.181790	0.374042	0.452030	0.166830	0.238888	-0.164556	0.387459
-106.000000	0.240283	0.199270	0.661380	-0.011820	-0.288302	-0.195112	0.348500	0.645278	-0.151644	-0.167733	0.265587	0.358878	0.650829	-0.259990	0.072190	0.694568	0.086298	1.114278	0.646930	-0.088656	-0.018102	0.371633	0.091750	0.028094	0.662883	0.135108	0.216112	0.232567	0.628551	0.484661	0.228112	0.389509	-0.049814	0.222988
-105.000000	0.395445	0.356403	0.631179	-0.021767	-0.289263	-0.157883	0.364672	0.639910	-0.196633	-0.192402	0.318960	0.191867	0.644181	-0.291456	0.057256	0.789177	-0.455289	0.981303	0.611574	-0.118992	-0.047142	0.309554	0.754413	0.076382	0.635139	0.126783	0.232007	0.275249	0.879583	0.526094	0.347232	0.639768	-0.087785	0.064704
-104.000000	0.504225	0.393905	0.589604	-0.002473	-0.223394	0.021568	0.427997	0.616146	-0.215976	-0.201710	0.254822	0.180254	0.607000	-0.246120	-0.001860	0.521486	-0.784659	0.780415	0.555484	-0.103720	-0.087881	0.232706	1.464779	0.290162	0.568853	0.114333	0.225254	0.309247	1.045511	0.551891	0.477505	0.884385	-0.196790	-0.026592
-103.000000	0.598751	0.439850	0.529274	0.060033	-0.106166	0.271696	0.557215	0.557647	-0.175222	-0.188213	0.063624	0.324356	0.526206	-0.087499	-0.073687	-0.103486	-0.977610	0.589613	0.468154	-0.038969	-0.146203	0.111162	2.041937	0.658876	0.474438	0.116987	0.179854	0.298225	1.071304	0.510598	0.509194	0.960708	-0.288329	0.014028
-102.000000	0.615640	0.501144	0.420884	0.127622	0.007705	0.469033	0.672641	0.443531	-0.096037	-0.158803	-0.106483	0.484024	0.387683	0.180290	-0.120153	-0.674976	-0.920711	0.392920	0.351079	0.096364	-0.195799	-0.011847	2.217735	1.019833	0.360776	0.150289	0.112448	0.237639	0.954559	0.389324	0.397501	0.812795	-0.320942	0.215379
-101.000000	0.517937	0.500912	0.291811	0.171572	0.074534	0.519314	0.678481	0.310490	-0.014231	-0.116055	-0.152401	0.584754	0.237512	0.460873	-0.122330	-0.908520	-0.555505	0.183258	0.237199	0.272691	-0.219118	-0.042635	1.826313	1.189911	0.243447	0.188338	0.047796	0.189409	0.727379	0.216476	0.203392	0.513105	-0.238909	0.531208
-100.000000	0.331132	0.429125	0.173141	0.182435	0.089466	0.458099	0.589779	0.193274	0.027228	-0.060564	-0.086268	0.627986	0.122415	0.586658	-0.098856	-0.840486	0.005109	-0.007538	0.148719	0.350258	-0.221164	0.078262	0.974782	1.082271	0.143772	0.191356	0.009390	0.215640	0.466774	0.095976	0.061279	0.261935	-0.039717	0.823492
-99.000000	0.103470	0.374960	0.077868	0.157661	0.087257	0.402957	0.523231	0.095799	0.027536	-0.016947	0.060714	0.693607	0.044985	0.515515	-0.072625	-0.565737	0.707415	-0.091304	0.084664	0.271169	-0.203365	0.282777	0.023046	0.757583	0.072513	0.155200	-0.014632	0.289864	0.268552	0.108346	0.022014	0.153253	0.143074	0.991081
-98.000000	-0.100231	0.381319	0.056736	0.116625	0.087027	0.404907	0.536775	0.056770	-0.001293	0.001104	0.263287	0.774347	0.036236	0.309226	-0.052985	-0.118512	1.428899	0.005661	0.074247	0.101141	-0.177761	0.464394	-0.647519	0.486498	0.054325	0.088745	-0.034042	0.364949	0.201439	0.217744	0.056418	0.154900	0.162831	1.006113
-97.000000	-0.251148	0.413893	0.119566	0.071536	0.067669	0.425000	0.572848	0.104153	-0.094370	-0.013462	0.500763	0.738171	0.103324	-0.026892	-0.039464	0.501507	1.907740	0.208972	0.128101	-0.136050	-0.162084	0.643240	-0.872785	0.485728	0.089312	-0.022401	-0.028205	0.465550	0.252806	0.345132	0.164716	0.297028	0.038592	0.865232
-96.000000	-0.316714	0.484910	0.167860	0.016818	0.019919	0.431373	0.616139	0.159970	-0.222386	-0.049919	0.755997	0.598832	0.159313	-0.393564	-0.020416	1.230017	2.050692	0.379836	0.148624	-0.388450	-0.142748	0.842851	-0.637096	0.621875	0.095548	-0.169773	0.000496	0.590404	0.332425	0.434973	0.304323	0.534546	-0.117450	0.612617
-95.000000	-0.232636	0.593283	0.178853	-0.015367	-0.014799	0.455193	0.703442	0.187667	-0.290819	-0.070746	0.935920	0.500015	0.183983	-0.607864	-0.009606	1.761652	1.918738	0.514689	0.119851	-0.536815	-0.107618	0.955725	-0.066811	0.631354	0.072460	-0.270541	0.024406	0.660048	0.383644	0.473583	0.391686	0.713347	-0.224091	0.335957
-94.000000	-0.048227	0.677126	0.230728	0.003245	-0.020364	0.542529	0.839576	0.241005	-0.263094	-0.076607	0.921490	0.594784	0.235089	-0.604860	-0.013333	1.713373	1.693198	0.669514	0.141141	-0.517259	-0.064170	0.879213	0.506847	0.598741	0.118895	-0.253006	0.033696	0.654187	0.458800	0.498385	0.412952	0.766400	-0.277514	0.128918
-93.000000	0.117510	0.728243	0.324102	0.037424	-0.027879	0.662463	0.977056	0.321942	-0.182419	-0.087166	0.776286	0.892624	0.317988	-0.435251	-0.015218	1.186736	1.640456	0.814041	0.224690	-0.357403	-0.018862	0.700684	0.698351	0.719271	0.235986	-0.129852	0.043097	0.640233	0.598079	0.533731	0.399504	0.753564	-0.302960	0.057388
-92.000000	0.212640	0.788519	0.409013	0.045599	-0.041664	0.709648	1.010953	0.406805	-0.109398	-0.091998	0.653300	1.148386	0.399992	-0.230786	-0.011500	0.675712	1.668001	0.903027	0.317645	-0.147613	0.022545	0.581407	0.381101	0.890224	0.353392	0.031586	0.053164	0.644191	0.721291	0.562147	0.380353	0.737459	-0.262238	0.148010
-91.000000	0.244997	0.914221	0.456332	0.032806	-0.039061	0.658435	0.971870	0.466978	-0.084003	-0.080898	0.560591	1.220105	0.441808	-0.124763	-0.004822	0.374599	1.522225	0.922890	0.380720	0.013159	0.054134	0.563103	-0.119802	1.001132	0.421541	0.163590	0.043884	0.656664	0.773612	0.594471	0.390155	0.735869	-0.198181	0.381792
-90.000000	0.262572	1.072164	0.462684	0.030110	-0.001030	0.634167	0.993321	0.483996	-0.099690	-0.062057	0.447448	1.220622	0.445715	-0.109330	-0.010431	0.174238	1.337765	0.838254	0.399419	0.089058	0.059400	0.599190	-0.360314	1.030293	0.431601	0.237945	0.011460	0.656246	0.761700	0.631347	0.414683	0.743499	-0.252652	0.625274
-89.000000	0.274289	1.114888	0.429396	0.023270	0.060151	0.702630	1.056390	0.452313	-0.121172	-0.027233	0.362776	1.183832	0.421200	-0.100510	-0.028725	0.102158	1.279785	0.648659	0.374003	0.111579	0.040696	0.629161	-0.188302	0.933847	0.398857	0.260475	-0.031425	0.620756	0.664016	0.666944	0.438094	0.766728	-0.403533	0.687759
-88.000000	0.231482	0.985763	0.314674	-0.029142	0.115979	0.748473	1.022914	0.321188	-0.128902	0.038413	0.389999	0.981319	0.308641	-0.074471	-0.033136	0.282618	1.062159	0.431223	0.263455	0.102940	0.010025	0.669824	0.211385	0.717453	0.280917	0.231911	-0.082842	0.598683	0.494646	0.664419	0.439215	0.806011	-0.470270	0.538523
-87.000000	0.118297	0.770997	0.112512	-0.090981	0.159152	0.677663	0.850031	0.099740	-0.076737	0.111364	0.465767	0.608125	0.100592	-0.013037	-0.020664	0.600021	0.491486	0.203209	0.053931	0.079596	-0.045103	0.735493	0.612975	0.386719	0.058424	0.153077	-0.138487	0.610538	0.367944	0.550343	0.367681	0.803294	-0.424912	0.295299
-86.000000	-0.020184	0.529146	-0.107200	-0.104632	0.203409	0.549001	0.640270	-0.119529	0.044689	0.166188	0.519067	0.252716	-0.115616	0.082702	-0.003878	0.858309	-0.058461	-0.047081	-0.177742	0.061070	-0.118439	0.703727	0.917483	-0.041928	-0.189749	0.065559	-0.199530	0.580301	0.387019	0.360230	0.259050	0.721688	-0.405028	0.046285
-85.000000	-0.116581	0.292742	-0.261668	-0.081419	0.263513	0.426733	0.464015	-0.261018	0.142794	0.217833	0.608697	0.021881	-0.258145	0.145168	0.011231	1.087370	-0.258136	-0.198914	-0.345607	0.042813	-0.184855	0.513573	0.963234	-0.378884	-0.366639	0.018698	-0.274744	0.475869	0.505281	0.205343	0.193157	0.626423	-0.401520	-0.195727
-84.000000	-0.145169	0.129152	-0.304732	-0.059686	0.334812	0.303291	0.310206	-0.302658	0.154274	0.267169	0.722904	-0.087680	-0.311154	0.137766	0.014220	1.269919	-0.108898	-0.182137	-0.415168	0.022003	-0.236789	0.267115	0.641636	-0.432792	-0.425568	0.017012	-0.349032	0.347888	0.596897	0.162992	0.199829	0.587613	-0.307098	-0.403678
-83.000000	-0.115690	0.040564	-0.245881	-0.044860	0.404194	0.218021	0.207377	-0.262526	0.124963	0.295679	0.774765	-0.024708	-0.290506	0.101855	-0.008613	1.216459	0.295392	-0.116071	-0.378174	0.004615	-0.268873	0.054668	0.051445	-0.270980	-0.382700	0.034947	-0.395582	0.218374	0.549837	0.232905	0.238352	0.547454	-0.141751	-0.486127
-82.000000	-0.047399	-0.020210	-0.156213	-0.031446	0.451388	0.245041	0.198555	-0.192287	0.102594	0.310204	0.730824	0.184763	-0.229576	0.085802	-0.045789	0.894353	0.747265	-0.118180	-0.275434	0.006579	-0.269141	-0.069065	-0.608581	-0.044246	-0.286876	0.047240	-0.405599	0.080472	0.307777	0.313941	0.212088	0.380388	0.010865	-0.436943
-81.000000	0.006869	-0.064904	-0.140129	-0.057613	0.445791	0.319363	0.201231	-0.178066	0.042209	0.293958	0.654100	0.320277	-0.203477	0.064899	-0.058557	0.609075	1.030384	-0.190853	-0.221556	0.012954	-0.237880	-0.009268	-1.135951	0.093668	-0.218684	0.044472	-0.387234	-0.013406	-0.050060	0.313268	0.086145	0.094345	0.149919	-0.350004
-80.000000	0.022159	-0.065849	-0.186085	-0.114448	0.383804	0.308731	0.134877	-0.214430	-0.043529	0.247700	0.598270	0.297206	-0.219549	0.023552	-0.040012	0.576236	1.066200	-0.263324	-0.247361	-0.001611	-0.204575	0.207639	-1.430090	0.022788	-0.220639	0.027134	-0.343792	-0.021146	-0.335283	0.232119	-0.067912	-0.163718	0.316769	-0.258866
-79.000000	0.030173	-0.040890	-0.199311	-0.144273	0.303012	0.257157	0.100506	-0.220981	-0.066601	0.231928	0.518628	0.313149	-0.217655	-0.004470	-0.018649	0.578301	0.949771	-0.319966	-0.277517	-0.021565	-0.188992	0.330341	-1.429432	-0.057317	-0.242529	-0.011932	-0.284363	-0.007142	-0.409981	0.108757	-0.165819	-0.281162	0.467664	-0.114991
-78.000000	0.046980	-0.029683	-0.160595	-0.137230	0.248315	0.279397	0.210112	-0.179073	-0.018148	0.247612	0.384014	0.486812	-0.182933	0.002974	-0.018902	0.387136	0.894071	-0.410226	-0.262963	-0.033479	-0.174357	0.181844	-0.994492	0.099607	-0.238423	-0.049159	-0.229413	-0.045315	-0.324691	-0.017312	-0.185853	-0.266911	0.543338	0.094846
-77.000000	0.062068	-0.035342	-0.106919	-0.103863	0.217646	0.342468	0.400098	-0.129499	0.075271	0.241748	0.216784	0.700825	-0.150256	0.062644	-0.037454	0.028658	0.998952	-0.501796	-0.216224	-0.014928	-0.147651	-0.116328	-0.070063	0.439322	-0.213746	-0.031681	-0.180193	-0.093778	-0.165460	-0.084435	-0.135974	-0.158254	0.486224	0.284104
-76.000000	0.048939	-0.072085	-0.063113	-0.080810	0.161399	0.362102	0.532562	-0.100450	0.175514	0.202674	0.050797	0.797618	-0.123003	0.157928	-0.050236	-0.380393	1.078483	-0.494139	-0.164916	0.060654	-0.113031	-0.340915	1.091915	0.852230	-0.166372	0.049536	-0.111163	-0.044274	0.090678	-0.050148	-0.004332	0.075522	0.299898	0.432368
-75.000000	0.019340	-0.103023	-0.026265	-0.095238	0.078514	0.363163	0.611350	-0.067367	0.219655	0.156327	-0.085270	0.794337	-0.076960	0.233584	-0.051744	-0.793104	0.885517	-0.312754	-0.104578	0.156998	-0.078695	-0.461471	2.038881	1.226945	-0.092450	0.148036	-0.026770	0.088208	0.364187	0.018999	0.164313	0.373620	0.145658	0.600541
-74.000000	0.041040	-0.041624	-0.002899	-0.107409	0.030239	0.398981	0.729962	-0.028490	0.201920	0.131603	-0.151853	0.822308	-0.042465	0.241287	-0.049549	-1.144660	0.551823	-0.052354	-0.060038	0.203875	-0.050146	-0.530764	2.487285	1.406329	-0.034114	0.195236	0.019309	0.190541	0.471190	0.025961	0.257320	0.562798	0.116392	0.744477
-73.000000	0.134524	0.072278	-0.004240	-0.081091	0.056187	0.495771	0.886728	-0.016849	0.181846	0.137972	-0.109794	0.912330	-0.040948	0.211306	-0.053026	-1.262617	0.364375	0.082286	-0.056491	0.190469	-0.040149	-0.558329	2.484834	1.352939	-0.021114	0.152233	-0.003160	0.187214	0.351015	-0.045625	0.212601	0.563280	0.109877	0.762956
-72.000000	0.242885	0.132329	-0.043348	-0.046807	0.130575	0.633606	0.981850	-0.047095	0.181248	0.149665	0.021033	0.953256	-0.062865	0.243576	-0.062923	-1.056222	0.290877	0.035933	-0.069577	0.176228	-0.058518	-0.552646	2.167942	1.087259	-0.038958	0.054009	-0.067653	0.074715	0.068190	-0.181370	0.055210	0.390570	0.031174	0.633979
-71.000000	0.274481	0.107519	-0.136939	-0.074815	0.190773	0.696911	0.890531	-0.138076	0.164048	0.136157	0.180908	0.770092	-0.124674	0.334576	-0.064460	-0.555948	0.142751	-0.115113	-0.107205	0.179234	-0.086162	-0.416126	1.578089	0.651944	-0.104563	-0.045151	-0.126313	-0.021607	-0.235993	-0.340966	-0.120416	0.158468	-0.015198	0.410853
-70.000000	0.237127	0.052624	-0.206950	-0.141219	0.234008	0.678411	0.654334	-0.230737	0.090196	0.121017	0.342232	0.390713	-0.168024	0.283867	-0.068300	0.066647	-0.094314	-0.236508	-0.148896	0.107340	-0.112199	-0.139500	0.726424	0.240701	-0.182923	-0.155035	-0.165708	-0.015821	-0.433356	-0.466103	-0.234035	0.020929	0.091989	0.183193
-69.000000	0.270468	0.114334	-0.114517	-0.122274	0.319756	0.701266	0.533386	-0.171096	-0.008143	0.145023	0.458807	0.162333	-0.071708	-0.009839	-0.096930	0.423963	-0.268984	-0.217829	-0.086728	-0.089256	-0.156559	0.039363	-0.275095	0.037528	-0.136602	-0.301978	-0.222826	0.002673	-0.506960	-0.543792	-0.325760	-0.065160	0.223594	0.008090
-68.000000	0.388681	0.310042	0.117962	0.009345	0.444985	0.742095	0.615820	0.046176	-0.057534	0.199443	0.464125	0.223117	0.142510	-0.335097	-0.125727	0.341383	-0.358114	-0.132495	0.101327	-0.315944	-0.221938	-0.015460	-1.223591	-0.014787	0.055174	-0.444300	-0.319258	-0.051099	-0.489251	-0.579166	-0.460560	-0.246115	0.215921	-0.106084
-67.000000	0.442853	0.463697	0.344942	0.170110	0.545645	0.708171	0.695841	0.271891	-0.052136	0.261513	0.406493	0.309531	0.348158	-0.503323	-0.125096	0.145497	-0.505812	-0.149521	0.309445	-0.480845	-0.280590	-0.163556	-1.930712	-0.071366	0.262002	-0.532777	-0.420549	-0.157854	-0.425253	-0.587607	-0.616840	-0.514561	0.124730	-0.128447
-66.000000	0.355506	0.503553	0.483774	0.291595	0.604067	0.649874	0.656677	0.409387	-0.001038	0.324769	0.366010	0.262054	0.472578	-0.524075	-0.107291	0.051271	-0.820743	-0.293254	0.442168	-0.568812	-0.314643	-0.302608	-2.184691	-0.124458	0.393737	-0.574448	-0.496776	-0.284168	-0.387628	-0.599716	-0.746956	-0.772895	0.047536	-0.078894
-65.000000	0.226435	0.522833	0.511857	0.361776	0.638868	0.624594	0.573503	0.440359	0.092938	0.379917	0.340684	0.152099	0.496613	-0.453907	-0.078506	-0.050341	-1.161330	-0.409356	0.470373	-0.592842	-0.332186	-0.456418	-1.847633	-0.129178	0.437486	-0.588677	-0.560361	-0.417639	-0.407129	-0.611053	-0.823522	-0.967361	-0.005484	-0.038414
-64.000000	0.175046	0.523179	0.452358	0.384968	0.659577	0.650578	0.512022	0.393483	0.185846	0.420665	0.339768	0.099648	0.440608	-0.342703	-0.048421	-0.126499	-1.193673	-0.365571	0.417185	-0.586696	-0.339483	-0.527536	-1.174735	-0.066223	0.408303	-0.601669	-0.611156	-0.492832	-0.423564	-0.616379	-0.843585	-1.067133	-0.007453	-0.026699
-63.000000	0.173304	0.459423	0.367537	0.352348	0.656084	0.696292	0.495870	0.327684	0.223729	0.446033	0.394422	0.162513	0.370344	-0.233748	-0.036090	-0.032205	-0.823537	-0.177234	0.348004	-0.566127	-0.321737	-0.378928	-0.743013	0.129438	0.360259	-0.616972	-0.619994	-0.439458	-0.384298	-0.630653	-0.825005	-1.052554	0.038930	-0.004890
-62.000000	0.161307	0.388675	0.327348	0.277765	0.603191	0.649048	0.505475	0.299262	0.193683	0.447867	0.497589	0.229498	0.347833	-0.180486	-0.031108	0.248305	-0.352771	0.073212	0.337837	-0.531859	-0.270741	-0.044138	-0.859802	0.433012	0.357109	-0.616678	-0.572084	-0.277942	-0.293284	-0.637256	-0.762526	-0.913435	0.065775	0.076576
-61.000000	0.156191	0.334226	0.372319	0.221790	0.514132	0.536968	0.489416	0.349887	0.123592	0.421762	0.589965	0.190249	0.394714	-0.195214	-0.029750	0.580042	-0.161725	0.298530	0.404168	-0.495071	-0.209231	0.270018	-1.282528	0.759407	0.419048	-0.601599	-0.484382	-0.095679	-0.126762	-0.623899	-0.655578	-0.656446	0.053565	0.223372
-60.000000	0.194290	0.299479	0.472796	0.233177	0.429333	0.485374	0.472851	0.464339	0.052152	0.378598	0.591542	0.130730	0.496072	-0.186651	-0.036577	0.693543	-0.255814	0.470357	0.505953	-0.431034	-0.166944	0.321189	-1.547038	0.974084	0.513980	-0.551309	-0.392756	0.003509	0.153436	-0.578079	-0.519926	-0.348537	0.071748	0.374239
-59.000000	0.255340	0.327239	0.555488	0.281458	0.365739	0.525980	0.507609	0.565517	0.044722	0.340459	0.501107	0.152187	0.586784	-0.037993	-0.035317	0.461839	-0.433015	0.577482	0.600610	-0.289916	-0.143324	0.070251	-1.416366	0.882684	0.590533	-0.448061	-0.330422	-0.041596	0.451058	-0.475259	-0.360111	-0.096480	0.167781	0.471590
-58.000000	0.283638	0.351266	0.579336	0.325923	0.337309	0.624881	0.553790	0.607259	0.135014	0.322278	0.394281	0.211037	0.611159	0.246631	-0.017194	0.127714	-0.658887	0.558828	0.659163	-0.094958	-0.129642	-0.284352	-1.012555	0.564265	0.613218	-0.326787	-0.320115	-0.205402	0.605679	-0.389404	-0.256919	-0.002865	0.234197	0.476321
-57.000000	0.269056	0.278617	0.556408	0.366446	0.344712	0.701154	0.534231	0.599241	0.257426	0.308950	0.299513	0.257726	0.588351	0.534752	0.009562	-0.121594	-0.827580	0.423729	0.653727	0.068215	-0.128341	-0.533353	-0.500137	0.330106	0.578249	-0.247163	-0.354274	-0.379289	0.619176	-0.391417	-0.278441	-0.074750	0.166327	0.375668
-56.000000	0.226035	0.154808	0.494321	0.388898	0.361916	0.679218	0.435292	0.544998	0.343025	0.278245	0.191844	0.316922	0.529191	0.753875	0.030430	-0.392833	-0.686037	0.248746	0.581141	0.192037	-0.129392	-0.656420	0.099369	0.184899	0.510358	-0.219029	-0.392346	-0.473522	0.576316	-0.399150	-0.331313	-0.189083	0.073372	0.216707
-55.000000	0.194588	0.060845	0.426323	0.400656	0.382237	0.587480	0.308396	0.474874	0.366412	0.238316	0.112386	0.369684	0.452621	0.840268	0.031738	-0.638804	-0.207864	0.137444	0.506229	0.269000	-0.131486	-0.734605	0.744856	-0.060744	0.453734	-0.211557	-0.413974	-0.497198	0.515158	-0.339707	-0.314302	-0.245865	0.115679	0.092201
-54.000000	0.222199	0.080918	0.435899	0.458154	0.418412	0.470712	0.193711	0.481746	0.337732	0.217455	0.138178	0.307285	0.451727	0.613460	0.013519	-0.592830	0.206967	0.218894	0.513670	0.155021	-0.149229	-0.742364	1.309143	-0.379535	0.473224	-0.251236	-0.431931	-0.486284	0.460084	-0.259062	-0.278751	-0.291413	0.301983	0.133941
-53.000000	0.257078	0.228949	0.509762	0.546351	0.463177	0.341166	0.094556	0.563367	0.295857	0.230464	0.253321	0.092273	0.523724	0.084504	-0.015554	-0.212581	0.167973	0.423634	0.581149	-0.205326	-0.181977	-0.618970	1.773023	-0.559524	0.562752	-0.378527	-0.447623	-0.442918	0.450297	-0.225277	-0.310279	-0.406871	0.502333	0.378814
-52.000000	0.275387	0.443863	0.536638	0.580279	0.490245	0.249192	0.050914	0.598601	0.242761	0.252092	0.333320	-0.125007	0.548363	-0.440176	-0.054058	0.183431	-0.140301	0.548404	0.601761	-0.600828	-0.217328	-0.442860	2.294256	-0.471115	0.618586	-0.524647	-0.436187	-0.359370	0.531440	-0.208270	-0.351483	-0.487017	0.533503	0.667503
-51.000000	0.319836	0.651559	0.485021	0.541551	0.488887	0.229307	0.073491	0.543220	0.163066	0.239130	0.241434	-0.222031	0.486295	-0.727024	-0.098979	0.178301	-0.345790	0.556289	0.536366	-0.806567	-0.259229	-0.407128	2.924338	-0.294263	0.571716	-0.593882	-0.389908	-0.290121	0.651367	-0.136179	-0.312838	-0.399982	0.396420	0.845102
-50.000000	0.374297	0.775561	0.400828	0.476255	0.478301	0.287974	0.135965	0.445953	0.067439	0.190525	0.022683	-0.219860	0.391245	-0.775456	-0.138491	-0.255923	-0.397880	0.522291	0.421853	-0.819726	-0.309562	-0.549731	3.516974	-0.251273	0.445215	-0.593549	-0.339810	-0.287846	0.684174	-0.040166	-0.228944	-0.254716	0.302127	0.913736
-49.000000	0.434406	0.810290	0.308613	0.427113	0.480016	0.379201	0.248771	0.336665	-0.016881	0.129526	-0.149730	-0.145486	0.299318	-0.693830	-0.161991	-0.711812	-0.425072	0.533439	0.283101	-0.757334	-0.342929	-0.698618	3.822885	-0.350393	0.284520	-0.582796	-0.318024	-0.334908	0.572902	0.004397	-0.195791	-0.229490	0.309972	0.908885
-48.000000	0.503468	0.755271	0.232320	0.408545	0.480821	0.393797	0.356691	0.242621	-0.049920	0.078060	-0.232120	-0.035116	0.221632	-0.569074	-0.170431	-0.951695	-0.575980	0.596727	0.163921	-0.668952	-0.343899	-0.769822	3.594009	-0.493984	0.145593	-0.560623	-0.310390	-0.413240	0.349475	-0.014417	-0.233765	-0.351147	0.309769	0.813987
-47.000000	0.528090	0.627807	0.174636	0.389507	0.450572	0.279411	0.344969	0.178638	-0.048684	0.048746	-0.226963	0.000255	0.166102	-0.440211	-0.179035	-0.969091	-0.799218	0.586952	0.085696	-0.560306	-0.318819	-0.752121	2.857040	-0.577104	0.054738	-0.501375	-0.271537	-0.464487	0.083376	-0.063608	-0.284397	-0.523535	0.327557	0.662520
-46.000000	0.459400	0.476965	0.081417	0.314096	0.381300	0.067700	0.167539	0.087656	-0.081832	0.022667	-0.075584	-0.156859	0.087989	-0.334705	-0.178379	-0.663256	-0.906974	0.449773	-0.014680	-0.466921	-0.264793	-0.575172	1.913458	-0.547597	-0.044579	-0.432760	-0.202921	-0.407942	-0.155078	-0.089903	-0.294389	-0.616877	0.434366	0.559132
-45.000000	0.306913	0.304719	-0.067817	0.172339	0.265776	-0.190964	-0.116464	-0.060703	-0.130408	-0.017562	0.112880	-0.450929	-0.052630	-0.209717	-0.140132	-0.116017	-0.880096	0.309378	-0.147299	-0.355387	-0.184153	-0.260861	0.937816	-0.472483	-0.158826	-0.346942	-0.125644	-0.258460	-0.335656	-0.043959	-0.232307	-0.550918	0.516925	0.558053
-44.000000	0.110695	0.149643	-0.225659	0.019505	0.113407	-0.393756	-0.331742	-0.210993	-0.140702	-0.066943	0.126018	-0.632890	-0.197880	-0.015902	-0.082653	0.298582	-0.670978	0.245210	-0.252418	-0.171837	-0.102382	0.037176	-0.008676	-0.442050	-0.237952	-0.216761	-0.030753	-0.113111	-0.473641	0.051505	-0.111426	-0.355110	0.401584	0.649372
-43.000000	-0.079379	0.080515	-0.319828	-0.096554	-0.017946	-0.418548	-0.325806	-0.296008	-0.131428	-0.096401	0.024289	-0.544682	-0.272539	0.138522	-0.040231	0.409889	-0.143463	0.190788	-0.288057	0.005931	-0.037488	0.214025	-0.775885	-0.350273	-0.263562	-0.078941	0.058176	-0.027773	-0.549336	0.141963	0.021174	-0.119755	0.108741	0.752946
-42.000000	-0.206529	0.071418	-0.282438	-0.151586	-0.077262	-0.291230	-0.157701	-0.259063	-0.132344	-0.085328	-0.018304	-0.281073	-0.224737	0.103445	-0.015910	0.350518	0.543892	0.153348	-0.218248	0.068592	0.013702	0.279528	-1.321934	-0.098722	-0.196559	0.024314	0.093173	0.010891	-0.572006	0.192731	0.093488	0.019342	-0.170816	0.755078
-41.000000	-0.250151	0.028694	-0.143280	-0.138281	-0.072601	-0.126170	0.026634	-0.135558	-0.141262	-0.053139	-0.025253	-0.020492	-0.084225	-0.081753	-0.001124	0.180053	1.097633	0.177867	-0.085163	0.032876	0.057313	0.244582	-1.674789	0.159375	-0.050050	0.102367	0.073725	-0.016467	-0.634628	0.173741	0.044954	-0.052041	-0.327614	0.591774
-40.000000	-0.269680	-0.089543	-0.078517	-0.119824	-0.053429	0.000533	0.137165	-0.088428	-0.159467	-0.028108	-0.016937	0.102111	-0.033423	-0.234455	0.024822	-0.022973	1.470469	0.126809	-0.027746	0.002884	0.095139	0.144394	-1.722354	0.242556	0.018585	0.186065	0.028607	-0.120467	-0.771005	0.061868	-0.103056	-0.317350	-0.367693	0.277796
-39.000000	-0.318874	-0.214564	-0.197517	-0.165213	-0.048373	0.067886	0.129221	-0.208018	-0.196618	-0.028527	0.048118	0.043343	-0.181672	-0.240332	0.066043	-0.046004	1.584475	-0.092744	-0.110250	0.051110	0.115639	0.103739	-1.311690	0.067571	-0.081191	0.270694	-0.017670	-0.213797	-0.903441	-0.136058	-0.298021	-0.692799	-0.331709	-0.050987
-38.000000	-0.376216	-0.282299	-0.400010	-0.251387	-0.051919	0.103871	0.058717	-0.407335	-0.221723	-0.054765	0.124347	-0.060678	-0.417684	-0.106259	0.089608	0.083531	1.333093	-0.332370	-0.278248	0.178953	0.114387	0.190825	-0.537488	-0.333205	-0.264233	0.350408	-0.037689	-0.192601	-0.931068	-0.333204	-0.461097	-1.011463	-0.286375	-0.263924
-37.000000	-0.444898	-0.372109	-0.526007	-0.326966	-0.061025	0.112168	-0.043247	-0.535511	-0.209257	-0.095077	0.171185	-0.134252	-0.557665	0.025605	0.077590	0.227870	0.796524	-0.458269	-0.431991	0.286100	0.103676	0.336993	0.123692	-0.744707	-0.415951	0.407861	-0.016565	-0.083359	-0.891844	-0.440030	-0.508029	-1.091721	-0.257720	-0.368946
-36.000000	-0.533714	-0.601195	-0.546536	-0.381324	-0.077969	0.049443	-0.290204	-0.557326	-0.208681	-0.142637	0.225834	-0.388187	-0.565100	-0.018839	0.046041	0.515030	0.035857	-0.501615	-0.516331	0.244890	0.089061	0.498549	0.164048	-0.951409	-0.493143	0.383483	0.031928	0.013503	-0.913102	-0.416135	-0.410947	-0.901883	-0.210406	-0.422558
-35.000000	-0.575399	-0.923717	-0.536574	-0.407151	-0.087233	-0.080626	-0.647748	-0.553311	-0.243559	-0.176568	0.289395	-0.875714	-0.543127	-0.195367	0.008435	0.976427	-0.832424	-0.521181	-0.562149	0.090578	0.082221	0.674165	-0.458394	-0.928880	-0.534514	0.279869	0.078797	0.085177	-0.968325	-0.257001	-0.212085	-0.530013	-0.148800	-0.427885
-34.000000	-0.507928	-1.150685	-0.503073	-0.365272	-0.060087	-0.160545	-0.848324	-0.528526	-0.241253	-0.170272	0.254603	-1.203554	-0.506932	-0.307187	-0.033229	1.145755	-1.418459	-0.438292	-0.572054	-0.016099	0.083213	0.731015	-1.304744	-0.783735	-0.545779	0.179712	0.093316	0.138373	-0.945828	-0.048455	-0.025895	-0.172184	-0.124353	-0.395942
-33.000000	-0.371561	-1.169751	-0.447204	-0.257718	0.012599	-0.076624	-0.727698	-0.469278	-0.168817	-0.130050	0.109354	-1.034339	-0.449766	-0.287771	-0.079691	0.725901	-1.329672	-0.194319	-0.549383	-0.023602	0.066872	0.554836	-1.851188	-0.597663	-0.529836	0.115756	0.067092	0.136187	-0.829236	0.110000	0.080817	-0.001575	-0.146554	-0.346622
-32.000000	-0.252702	-1.026446	-0.436896	-0.157669	0.103903	0.100979	-0.406938	-0.448104	-0.081541	-0.073063	0.010226	-0.553998	-0.441367	-0.215536	-0.130998	0.122549	-0.727488	0.071100	-0.556385	-0.005937	0.032474	0.297615	-1.851445	-0.385308	-0.549694	0.049505	0.027095	0.104696	-0.646696	0.209772	0.124347	-0.000392	-0.131511	-0.236329
-31.000000	-0.191362	-0.771974	-0.501372	-0.120028	0.175209	0.196375	-0.109430	-0.505274	-0.043135	-0.016379	0.018395	-0.166309	-0.501867	-0.162517	-0.168197	-0.234822	-0.159254	0.231316	-0.609582	-0.007431	0.007996	0.154769	-1.482409	-0.136875	-0.614908	-0.039591	-0.007012	0.114320	-0.440466	0.275232	0.129197	-0.055471	-0.012322	-0.029489
-30.000000	-0.186538	-0.456125	-0.581566	-0.135978	0.216344	0.178945	0.117455	-0.587917	-0.060118	0.028031	0.041118	0.032668	-0.578662	-0.157576	-0.180531	-0.362709	0.082419	0.275911	-0.660562	-0.032704	0.001599	0.073902	-1.104495	0.126586	-0.664588	-0.126843	-0.035813	0.133448	-0.266510	0.305888	0.102328	-0.100725	0.103645	0.225248
-29.000000	-0.202246	-0.174623	-0.612142	-0.165970	0.237638	0.171337	0.331681	-0.626844	-0.083041	0.077754	0.061283	0.157056	-0.614316	-0.193897	-0.177694	-0.361719	0.110684	0.249905	-0.669759	-0.085820	0.007242	-0.026508	-0.818170	0.299882	-0.652256	-0.184160	-0.059944	0.114659	-0.108722	0.289218	0.036370	-0.140939	0.133169	0.436803
-28.000000	-0.218714	0.019582	-0.614001	-0.206134	0.235265	0.234905	0.499342	-0.626380	-0.109316	0.143845	0.154985	0.256780	-0.613011	-0.245893	-0.150605	-0.155858	0.209893	0.172671	-0.653840	-0.153909	0.018292	-0.067950	-0.480895	0.275037	-0.610111	-0.217136	-0.084660	0.085233	0.047369	0.200419	-0.074931	-0.206530	0.140412	0.554159
-27.000000	-0.272893	0.082785	-0.644070	-0.275605	0.201281	0.295248	0.525252	-0.650491	-0.152968	0.211368	0.322710	0.265685	-0.638964	-0.260711	-0.092635	0.285212	0.448921	-0.000334	-0.657548	-0.185170	0.035529	0.025914	-0.021878	0.024005	-0.604707	-0.230331	-0.108647	0.074970	0.148556	0.059567	-0.207873	-0.288791	0.178326	0.586698
-26.000000	-0.389991	-0.006397	-0.723617	-0.364870	0.147113	0.268790	0.364968	-0.746585	-0.156354	0.267447	0.509382	0.080424	-0.728971	-0.142134	-0.016324	0.848894	0.617227	-0.243334	-0.713311	-0.135178	0.068635	0.214691	0.444698	-0.355235	-0.672588	-0.221208	-0.130789	0.089228	0.175622	-0.063113	-0.293638	-0.311260	0.205823	0.509602
-25.000000	-0.532874	-0.135500	-0.804548	-0.432898	0.101242	0.202979	0.182527	-0.853421	-0.086003	0.294740	0.613894	-0.123025	-0.820315	0.083053	0.056891	1.242996	0.624714	-0.457631	-0.786860	-0.055536	0.095604	0.350357	0.706434	-0.652745	-0.777948	-0.206218	-0.158133	0.075338	0.134260	-0.149835	-0.296301	-0.234941	0.092050	0.296587
-24.000000	-0.602603	-0.203123	-0.804518	-0.430612	0.093422	0.199256	0.171454	-0.850692	-0.027502	0.283816	0.563822	-0.101176	-0.823385	0.169819	0.091714	1.161061	0.609152	-0.585900	-0.788436	-0.052279	0.082933	0.367296	0.726460	-0.793670	-0.814809	-0.198555	-0.185136	0.030464	0.016598	-0.221520	-0.251703	-0.112721	-0.128088	0.091837
-23.000000	-0.567083	-0.262873	-0.745586	-0.359740	0.116943	0.204157	0.223180	-0.773665	-0.062282	0.257605	0.452278	-0.006356	-0.771717	-0.013477	0.084724	0.784333	0.530591	-0.650910	-0.735856	-0.154435	0.037068	0.389317	0.611763	-0.890477	-0.779224	-0.224006	-0.201667	0.031243	-0.177930	-0.286158	-0.207860	0.014820	-0.196670	0.075453
-22.000000	-0.521515	-0.351735	-0.751845	-0.276664	0.140871	0.134992	0.197123	-0.768786	-0.159940	0.228812	0.363107	-0.002177	-0.784185	-0.300823	0.067592	0.443313	0.235144	-0.732058	-0.758158	-0.301352	-0.012939	0.459267	0.394071	-0.965040	-0.805200	-0.303445	-0.208462	0.063942	-0.409603	-0.361808	-0.178377	0.153559	-0.038993	0.194806
-21.000000	-0.538729	-0.399655	-0.863093	-0.236249	0.169864	0.056158	0.140841	-0.865735	-0.255322	0.204155	0.306361	-0.013125	-0.891969	-0.504381	0.054136	0.170607	-0.103267	-0.853242	-0.886073	-0.427185	-0.059526	0.435477	0.064102	-0.881415	-0.929492	-0.411527	-0.224000	0.041678	-0.597886	-0.466933	-0.199181	0.240208	0.124111	0.260479
-20.000000	-0.602530	-0.371136	-0.976806	-0.235668	0.226069	0.053116	0.079598	-0.967113	-0.299764	0.193019	0.300903	-0.044563	-0.999976	-0.580268	0.048257	0.025840	-0.239747	-0.933135	-1.011088	-0.495122	-0.110848	0.305739	-0.456242	-0.705849	-1.042488	-0.529671	-0.274326	-0.051219	-0.741304	-0.614676	-0.353993	0.103609	0.128311	0.216007
-19.000000	-0.622066	-0.300781	-0.999836	-0.205481	0.316732	0.160593	0.024364	-0.985745	-0.264783	0.191027	0.321587	-0.087413	-1.020244	-0.549503	0.045619	0.033880	-0.111941	-0.986415	-1.061711	-0.512951	-0.173027	0.172096	-1.099353	-0.703343	-1.074066	-0.667734	-0.362352	-0.152236	-0.864446	-0.821114	-0.655997	-0.297085	0.061595	0.157662
-18.000000	-0.524985	-0.167256	-0.955700	-0.128659	0.409036	0.321342	0.027753	-0.937031	-0.196268	0.194534	0.339575	0.006630	-0.971073	-0.460606	0.037725	0.054664	0.254200	-1.106271	-1.060327	-0.521467	-0.228399	0.048311	-1.522236	-0.886475	-1.053842	-0.802919	-0.446760	-0.201530	-0.865503	-1.044574	-0.978168	-0.752995	0.067897	0.196871
-17.000000	-0.366051	0.076694	-0.896458	-0.081762	0.447928	0.432416	0.118217	-0.880041	-0.176446	0.190144	0.339829	0.235221	-0.910117	-0.402258	0.028171	0.014059	0.646021	-1.267161	-1.024379	-0.551529	-0.243065	-0.032229	-1.556741	-1.078604	-1.014533	-0.886768	-0.476099	-0.178277	-0.692406	-1.153106	-1.138951	-0.988131	0.074543	0.304609
-16.000000	-0.238063	0.316755	-0.845549	-0.102993	0.437745	0.483053	0.273557	-0.831026	-0.232553	0.173780	0.294322	0.444217	-0.865003	-0.446003	0.014182	-0.095568	0.735939	-1.438016	-0.962964	-0.622365	-0.225534	-0.026380	-1.326825	-1.099529	-0.969661	-0.918354	-0.451928	-0.124301	-0.504637	-1.074038	-1.080030	-0.920722	-0.102520	0.324266
-15.000000	-0.178883	0.391957	-0.834439	-0.164243	0.410789	0.517823	0.420037	-0.811334	-0.339647	0.156774	0.231164	0.587371	-0.854915	-0.591861	-0.000341	-0.204278	0.508196	-1.625581	-0.909388	-0.731572	-0.197235	0.070505	-0.989307	-0.927764	-0.947617	-0.938088	-0.410449	-0.081863	-0.446900	-0.903418	-0.913386	-0.735739	-0.394761	0.213558
-14.000000	-0.205822	0.318121	-0.867673	-0.234883	0.371602	0.536176	0.504560	-0.848310	-0.449674	0.141465	0.219433	0.670259	-0.886377	-0.781050	-0.001281	-0.206352	0.278297	-1.788563	-0.903245	-0.851328	-0.149865	0.240361	-0.638482	-0.829392	-0.967856	-0.972773	-0.370322	-0.005056	-0.436615	-0.775229	-0.759750	-0.574093	-0.525908	0.048206
-13.000000	-0.288748	0.197342	-0.921220	-0.286833	0.328908	0.516684	0.512018	-0.916435	-0.506162	0.136038	0.283238	0.625076	-0.936627	-0.936410	0.006022	-0.058451	0.156081	-1.818968	-0.953820	-0.957644	-0.086928	0.392099	-0.344406	-0.889637	-1.020150	-1.030942	-0.334930	0.127182	-0.344856	-0.747964	-0.658587	-0.414074	-0.418545	-0.126908
-12.000000	-0.391472	0.058340	-0.998249	-0.315188	0.302277	0.499850	0.427468	-1.002513	-0.501953	0.158154	0.439976	0.401459	-1.010368	-1.021782	0.010860	0.343816	0.067092	-1.717410	-1.051114	-1.043807	-0.046083	0.454001	-0.250186	-0.847560	-1.096630	-1.127262	-0.313138	0.232606	-0.192553	-0.847151	-0.643780	-0.269276	-0.240943	-0.249366
-11.000000	-0.517851	-0.109300	-1.100866	-0.356352	0.283032	0.487617	0.261525	-1.115869	-0.499311	0.205942	0.668754	0.055372	-1.122546	-1.055852	0.021807	1.019402	-0.015842	-1.645025	-1.183326	-1.120867	-0.042091	0.492819	-0.464967	-0.654424	-1.195536	-1.254107	-0.304839	0.273146	-0.053557	-1.060907	-0.725637	-0.186056	-0.110686	-0.255900
-10.000000	-0.594776	-0.230788	-1.137618	-0.399588	0.258848	0.450627	0.140677	-1.171769	-0.509577	0.245438	0.815059	-0.156066	-1.179995	-1.031986	0.041797	1.530423	-0.026235	-1.629939	-1.252988	-1.164093	-0.051577	0.569417	-0.838598	-0.573133	-1.239815	-1.334340	-0.300645	0.288818	0.050338	-1.273557	-0.820677	-0.148923	-0.100276	-0.124631
-9.000000	-0.569535	-0.262085	-1.037163	-0.390375	0.255435	0.426066	0.166931	-1.093861	-0.492699	0.251819	0.781763	-0.058405	-1.097128	-0.905457	0.051469	1.468627	0.115154	-1.530241	-1.186311	-1.115406	-0.060894	0.646262	-1.053026	-0.701416	-1.170316	-1.311426	-0.306904	0.304314	0.112400	-1.401080	-0.878492	-0.146600	-0.248826	0.164986
-8.000000	-0.519948	-0.287047	-0.912967	-0.371261	0.269422	0.392173	0.200109	-0.984548	-0.447315	0.237766	0.652958	0.078841	-0.972304	-0.672049	0.050182	1.063147	0.233837	-1.311263	-1.092898	-0.983067	-0.059976	0.736327	-0.874657	-0.923270	-1.091286	-1.237372	-0.319605	0.342356	0.137527	-1.482583	-0.943215	-0.192452	-0.473189	0.546950
-7.000000	-0.471524	-0.287192	-0.849991	-0.386929	0.274905	0.331971	0.169331	-0.920809	-0.387298	0.217382	0.516990	0.064874	-0.886716	-0.418541	0.047693	0.632667	0.146441	-1.098019	-1.044195	-0.837122	-0.049394	0.787363	-0.258065	-1.078044	-1.062595	-1.169474	-0.322598	0.384714	0.196973	-1.529828	-1.003307	-0.259755	-0.687433	0.874368
-6.000000	-0.366133	-0.195067	-0.757419	-0.358314	0.299464	0.328082	0.218705	-0.813502	-0.323837	0.179733	0.411553	0.103386	-0.764787	-0.326005	0.030165	0.239736	0.009970	-0.985442	-0.945577	-0.769844	-0.057036	0.639107	0.664970	-0.936244	-0.992438	-1.105787	-0.329629	0.350874	0.338537	-1.528585	-1.021386	-0.345176	-0.862580	1.063766
-5.000000	-0.200497	-0.066991	-0.594877	-0.246979	0.367473	0.408682	0.361842	-0.633799	-0.250963	0.134128	0.378543	0.292565	-0.591026	-0.441798	-0.007383	-0.013416	0.185328	-1.004853	-0.776369	-0.817389	-0.088849	0.326005	1.630316	-0.453714	-0.859663	-1.057022	-0.360091	0.224005	0.475172	-1.536795	-1.058483	-0.491598	-1.019450	1.080111
-4.000000	-0.010134	0.074807	-0.445050	-0.122598	0.452292	0.515167	0.465827	-0.465570	-0.163085	0.127774	0.424824	0.460258	-0.450763	-0.574361	-0.041394	-0.045452	0.738198	-1.146068	-0.630223	-0.894178	-0.123155	0.041339	2.197802	0.039929	-0.730610	-1.054888	-0.410898	0.047669	0.429199	-1.615132	-1.176433	-0.704284	-1.141219	0.899057
-3.000000	0.188411	0.220551	-0.346142	-0.038811	0.514362	0.555882	0.436346	-0.364406	-0.103549	0.158323	0.452624	0.454165	-0.371943	-0.584492	-0.044764	0.009002	1.273300	-1.306092	-0.538100	-0.914839	-0.158607	-0.108753	1.991111	0.209303	-0.641319	-1.080306	-0.469598	-0.122178	0.159699	-1.714945	-1.313193	-0.910286	-1.103237	0.589430
-2.000000	0.367349	0.308989	-0.297814	-0.015020	0.529689	0.473715	0.328138	-0.341939	-0.095566	0.169259	0.333647	0.368991	-0.342029	-0.475378	-0.028791	-0.085021	1.531684	-1.440372	-0.486506	-0.862878	-0.192774	-0.141487	1.204692	0.038067	-0.592389	-1.076065	-0.500898	-0.200082	-0.111406	-1.741927	-1.371434	-1.013918	-0.891555	0.266246
-1.000000	0.469032	0.307107	-0.315488	-0.056734	0.501463	0.324640	0.270478	-0.374043	-0.092208	0.153470	0.130390	0.368640	-0.355085	-0.279218	-0.015726	-0.290089	1.545273	-1.679030	-0.480060	-0.761505	-0.209703	-0.144825	0.350117	-0.262848	-0.569985	-1.031884	-0.485737	-0.194212	-0.237453	-1.705741	-1.361308	-1.019637	-0.666117	0.017669
0.000000	0.468241	0.259761	-0.357150	-0.125642	0.471231	0.199042	0.267230	-0.414079	-0.074354	0.145309	0.021350	0.374852	-0.383647	-0.091022	0.000400	-0.319371	1.212360	-1.991948	-0.493612	-0.671343	-0.203661	-0.176202	-0.317359	-0.464046	-0.555390	-0.980696	-0.471632	-0.203178	-0.300084	-1.679767	-1.371151	-1.049016	-0.553820	-0.100402
1.000000	0.414510	0.292125	-0.353348	-0.161921	0.482192	0.170209	0.288403	-0.406735	-0.078489	0.153289	0.037590	0.276711	-0.371248	-0.098567	0.018002	-0.144593	0.500647	-2.102040	-0.467739	-0.663344	-0.188726	-0.228252	-0.754037	-0.475662	-0.499664	-0.965170	-0.500194	-0.260703	-0.347551	-1.681831	-1.444689	-1.201943	-0.558920	-0.099009
2.000000	0.361373	0.450116	-0.285041	-0.132391	0.521652	0.262728	0.357871	-0.318058	-0.118903	0.167432	0.103895	0.170581	-0.286639	-0.346143	0.027615	-0.009634	-0.198530	-1.854889	-0.377673	-0.761607	-0.180507	-0.302858	-0.856136	-0.390456	-0.381848	-0.988348	-0.549267	-0.321951	-0.306403	-1.637427	-1.501840	-1.373647	-0.542556	0.014967
3.000000	0.327351	0.630370	-0.175592	-0.071398	0.552404	0.403646	0.465697	-0.185976	-0.148654	0.175499	0.116107	0.153896	-0.158647	-0.628105	0.023364	-0.135634	-0.513579	-1.365747	-0.246875	-0.878190	-0.164414	-0.426019	-0.511683	-0.331452	-0.237108	-0.984990	-0.575769	-0.339572	-0.120385	-1.468291	-1.405825	-1.334631	-0.420058	0.228128
4.000000	0.309383	0.713580	-0.053771	-0.031431	0.565061	0.534653	0.585002	-0.054435	-0.122648	0.175480	0.015283	0.198175	-0.025227	-0.773808	0.004649	-0.492944	-0.529765	-0.895384	-0.103250	-0.905115	-0.131902	-0.573195	0.083964	-0.303940	-0.091401	-0.920391	-0.569710	-0.345776	0.089881	-1.234380	-1.161993	-1.083142	-0.258603	0.411091
5.000000	0.283798	0.688570	0.050616	-0.007420	0.563188	0.638422	0.678395	0.056512	-0.063637	0.168104	-0.100189	0.260386	0.077457	-0.785223	-0.008885	-0.696506	-0.478827	-0.627928	0.013946	-0.860948	-0.104042	-0.634080	0.591947	-0.188952	0.017458	-0.827879	-0.554303	-0.367834	0.184277	-1.054581	-0.914397	-0.812391	-0.045244	0.474544
6.000000	0.238901	0.592304	0.103625	0.027167	0.542865	0.683301	0.677689	0.109093	-0.015315	0.151204	-0.077025	0.272566	0.124549	-0.714425	0.014858	-0.409129	-0.450119	-0.564071	0.051627	-0.808961	-0.104325	-0.519215	0.894316	0.081603	0.041725	-0.759534	-0.557723	-0.358198	0.160718	-0.986724	-0.768743	-0.629556	0.258481	0.470748
7.000000	0.202034	0.435561	0.100762	0.072910	0.511399	0.692236	0.602804	0.095613	0.017411	0.153005	0.123503	0.170870	0.114979	-0.552093	0.080871	0.303700	-0.355102	-0.616522	0.006032	-0.717757	-0.128262	-0.250715	1.009581	0.363240	-0.009921	-0.715154	-0.592270	-0.318341	0.017565	-1.040806	-0.748676	-0.574345	0.526063	0.442797
8.000000	0.231659	0.304978	0.129548	0.130504	0.500079	0.709858	0.591367	0.115221	0.086851	0.189806	0.328574	0.131022	0.120115	-0.266000	0.145654	0.953447	-0.030909	-0.641894	-0.002719	-0.512807	-0.146097	0.017461	0.982233	0.517615	-0.016217	-0.618162	-0.645733	-0.301934	-0.185237	-1.158619	-0.820551	-0.659128	0.603048	0.430868
9.000000	0.353472	0.292870	0.291555	0.243623	0.537640	0.747920	0.706749	0.277047	0.229583	0.230000	0.383748	0.338166	0.256565	0.046777	0.176197	1.088155	0.434452	-0.527920	0.160675	-0.256302	-0.160326	0.127358	0.754272	0.560657	0.141318	-0.464211	-0.713837	-0.343422	-0.364801	-1.275462	-0.969495	-0.884649	0.531490	0.460304
10.000000	0.532074	0.296605	0.524437	0.408648	0.619097	0.827469	0.872286	0.518143	0.384593	0.257971	0.387136	0.648930	0.482032	0.183617	0.182909	0.850879	0.693934	-0.317939	0.412281	-0.147515	-0.194470	0.120234	0.176282	0.527665	0.373952	-0.371191	-0.802006	-0.430809	-0.553817	-1.385690	-1.181257	-1.221670	0.498489	0.453885
11.000000	0.724647	0.172719	0.668395	0.537411	0.707929	0.921580	0.979805	0.680452	0.486523	0.283749	0.438789	0.831068	0.639853	0.111909	0.178904	0.641289	0.570061	-0.056721	0.562512	-0.242034	-0.244262	0.146706	-0.603406	0.454086	0.508835	-0.401316	-0.886833	-0.475754	-0.736902	-1.456338	-1.344886	-1.509041	0.584462	0.374774
12.000000	0.902620	-0.011728	0.665180	0.589421	0.782920	0.968220	1.010179	0.697526	0.533933	0.310412	0.503959	0.858228	0.667609	-0.012975	0.162961	0.574444	0.356775	0.231703	0.567273	-0.386667	-0.297612	0.170129	-1.120822	0.443726	0.504649	-0.493615	-0.945881	-0.466386	-0.827453	-1.442886	-1.384172	-1.607832	0.679426	0.300349
13.000000	1.033741	-0.147649	0.567722	0.594562	0.851232	0.947651	0.999669	0.607294	0.539868	0.334292	0.568299	0.824179	0.597799	-0.080290	0.142249	0.620147	0.458617	0.412995	0.471287	-0.467161	-0.355087	0.014854	-1.012972	0.551759	0.405475	-0.569559	-0.993481	-0.496034	-0.770651	-1.367147	-1.353206	-1.547695	0.677669	0.305693
14.000000	1.093467	-0.204734	0.435292	0.594016	0.900974	0.859883	0.944307	0.469279	0.549378	0.346977	0.628511	0.746167	0.475521	-0.049455	0.135707	0.785525	0.825314	0.390856	0.321311	-0.470949	-0.405312	-0.276146	-0.350272	0.623205	0.252377	-0.613345	-1.036680	-0.571465	-0.602751	-1.298261	-1.301646	-1.411525	0.596132	0.388775
15.000000	1.085908	-0.119695	0.329561	0.621816	0.923848	0.751569	0.899088	0.346910	0.610425	0.346208	0.641129	0.668030	0.350123	0.067902	0.140845	0.924462	1.072351	0.277716	0.182642	-0.415664	-0.432828	-0.513094	0.382457	0.541263	0.091819	-0.652328	-1.064693	-0.647908	-0.455146	-1.291469	-1.258160	-1.291482	0.447702	0.480894
16.000000	1.069928	0.117930	0.329204	0.696135	0.949128	0.710160	0.929623	0.325773	0.709269	0.344248	0.581596	0.642301	0.306403	0.204684	0.128510	0.833594	0.946189	0.196820	0.133748	-0.321936	-0.453985	-0.655311	0.637286	0.442589	0.011936	-0.682736	-1.077639	-0.737195	-0.428547	-1.339116	-1.281051	-1.290285	0.245135	0.523698
17.000000	1.113860	0.476690	0.457807	0.811389	0.979064	0.729137	1.064255	0.433466	0.811832	0.354379	0.445291	0.711502	0.396271	0.315737	0.091522	0.501664	0.618787	0.141592	0.220914	-0.197142	-0.469838	-0.713799	0.264354	0.451120	0.090603	-0.646584	-1.070586	-0.822070	-0.478875	-1.361805	-1.349889	-1.392878	0.079004	0.526679
18.000000	1.204738	0.914214	0.637479	0.924289	0.974783	0.719191	1.317977	0.602484	0.894114	0.360773	0.234200	0.919644	0.565644	0.406647	0.049641	-0.022667	0.459511	0.166947	0.403231	-0.044135	-0.450663	-0.665728	-0.411899	0.550333	0.281650	-0.502508	-1.024423	-0.804077	-0.448970	-1.277707	-1.353658	-1.435111	-0.022312	0.554837
19.000000	1.263371	1.258774	0.768741	0.970570	0.928535	0.675527	1.585752	0.745036	0.917769	0.347611	0.018961	1.147894	0.713730	0.478060	0.001262	-0.596633	0.563792	0.323210	0.571743	0.113820	-0.395945	-0.569772	-0.975061	0.744270	0.448187	-0.303279	-0.929797	-0.671578	-0.254623	-1.097535	-1.214568	-1.242663	-0.149284	0.651701
20.000000	1.230737	1.362128	0.836283	0.925521	0.862274	0.657739	1.746735	0.825063	0.867722	0.320141	-0.102870	1.298121	0.803561	0.518802	-0.054347	-0.976750	0.796980	0.510219	0.674328	0.246782	-0.331262	-0.541757	-1.073352	1.056844	0.540148	-0.118015	-0.807927	-0.535324	0.057434	-0.852217	-0.915814	-0.759388	-0.352316	0.799996
21.000000	1.125070	1.270544	0.884464	0.827601	0.770324	0.655024	1.791427	0.884159	0.792526	0.275353	-0.124638	1.389121	0.879355	0.533615	-0.087593	-1.108637	0.941118	0.613362	0.750355	0.350462	-0.265003	-0.613906	-0.595500	1.409745	0.625898	0.050805	-0.682731	-0.443654	0.378905	-0.567033	-0.534005	-0.142759	-0.574927	0.957596
22.000000	0.967305	1.090292	0.929835	0.717145	0.645411	0.644982	1.777719	0.950958	0.709558	0.216127	-0.092036	1.423440	0.962971	0.503273	-0.085174	-1.052625	0.883424	0.602155	0.827986	0.417764	-0.193854	-0.668425	0.181123	1.681801	0.733730	0.195998	-0.560237	-0.371490	0.585156	-0.338670	-0.234769	0.305962	-0.766243	1.045341
23.000000	0.763805	0.851561	0.970801	0.604328	0.501126	0.629609	1.696880	1.009144	0.607306	0.155398	-0.046565	1.336540	1.025323	0.429052	-0.051155	-0.842655	0.623791	0.561770	0.906154	0.447149	-0.126819	-0.575360	0.882004	1.899132	0.827363	0.284625	-0.449971	-0.284170	0.672609	-0.239231	-0.082228	0.455084	-0.875529	1.031607
24.000000	0.572937	0.571527	1.023983	0.506161	0.347389	0.573826	1.508827	1.071973	0.510827	0.106778	0.012210	1.094625	1.056814	0.355531	0.004122	-0.506647	0.254166	0.642998	0.979902	0.462061	-0.062333	-0.387479	1.284309	2.078684	0.904506	0.327835	-0.351511	-0.180504	0.735656	-0.223579	-0.010152	0.419520	-0.825569	1.060524
25.000000	0.437040	0.305234	1.061588	0.437799	0.210628	0.474704	1.310762	1.121037	0.419791	0.055644	0.114540	0.858820	1.061961	0.294633	0.040633	-0.090510	0.227860	0.823538	1.024036	0.471739	-0.006676	-0.261419	1.422836	2.062755	0.964332	0.361040	-0.251262	-0.108351	0.782330	-0.210006	0.032830	0.341710	-0.663156	1.213366
26.000000	0.340791	0.094711	1.017306	0.370384	0.107949	0.366506	1.199465	1.079275	0.346262	-0.030091	0.193082	0.779984	1.013601	0.245169	0.041104	0.223821	0.761099	0.941893	0.998026	0.471698	0.024029	-0.220490	1.520557	1.851507	0.968793	0.402377	-0.149053	-0.052565	0.776889	-0.128963	0.113093	0.350401	-0.554825	1.371071
27.000000	0.302874	-0.021830	0.905105	0.297728	0.027345	0.266697	1.142657	0.950926	0.331830	-0.130361	0.134866	0.811418	0.908964	0.227659	0.028838	0.230810	1.410672	0.981549	0.911212	0.473347	0.049759	-0.181954	1.723187	1.534000	0.921129	0.463096	-0.056183	0.046363	0.729797	0.065873	0.285970	0.512065	-0.532761	1.456462
28.000000	0.362983	-0.031469	0.785773	0.247291	-0.021977	0.188172	1.081564	0.804678	0.353030	-0.195825	-0.014449	0.867974	0.784469	0.235556	0.010667	0.032886	1.808147	0.959144	0.794150	0.473014	0.081660	-0.120894	1.959407	1.032227	0.833135	0.508896	0.011310	0.181351	0.669215	0.306018	0.448537	0.679167	-0.463399	1.443002
29.000000	0.479325	-0.015984	0.648143	0.205836	-0.030246	0.146426	0.989339	0.641672	0.344713	-0.214036	-0.096676	0.869135	0.625375	0.200860	-0.018093	-0.043177	1.897286	0.813184	0.615239	0.426446	0.097452	-0.057167	2.041620	0.454480	0.667784	0.477324	0.048340	0.289104	0.622760	0.470477	0.481400	0.700766	-0.312665	1.303916
30.000000	0.574607	-0.064847	0.492534	0.155538	-0.024012	0.126810	0.831563	0.471105	0.281864	-0.208855	-0.074112	0.691441	0.440443	0.108608	-0.046545	0.117387	1.431267	0.588366	0.405056	0.329923	0.086643	-0.000485	1.882801	0.117029	0.466186	0.382105	0.070557	0.345805	0.626570	0.553993	0.447117	0.659336	-0.151443	1.087208
31.000000	0.630219	-0.153771	0.397718	0.111073	-0.017936	0.088363	0.624733	0.365801	0.210813	-0.206417	-0.048149	0.343732	0.322937	0.053649	-0.061805	0.306879	0.250845	0.401555	0.279029	0.261883	0.065358	0.000643	1.463223	0.077886	0.339810	0.299700	0.079742	0.322643	0.615057	0.605950	0.416201	0.590849	0.017873	0.867382
32.000000	0.659957	-0.240105	0.386481	0.098997	0.007683	0.034581	0.463244	0.339096	0.175349	-0.228977	-0.095183	0.016499	0.296744	0.105535	-0.066172	0.263773	-1.078081	0.280995	0.254637	0.269561	0.045327	-0.112478	0.855752	0.131005	0.305205	0.273477	0.058490	0.150000	0.438806	0.627589	0.357756	0.424959	0.233271	0.748465
33.000000	0.661978	-0.336475	0.357792	0.099212	0.054566	-0.022886	0.346271	0.303055	0.153816	-0.282882	-0.184357	-0.206374	0.270299	0.250222	-0.078318	0.024558	-1.939094	0.183835	0.240248	0.346190	0.023031	-0.301043	0.376226	0.119070	0.273505	0.298872	0.023752	-0.117332	0.130855	0.614482	0.282289	0.246877	0.508563	0.824839
34.000000	0.618169	-0.429008	0.241117	0.060361	0.083713	-0.108965	0.198664	0.184736	0.101569	-0.348910	-0.277226	-0.374211	0.179334	0.415095	-0.110272	-0.194788	-2.243701	0.052094	0.170494	0.471450	0.004919	-0.444459	0.265475	-0.021206	0.171251	0.342181	0.026559	-0.324386	-0.136375	0.584453	0.238749	0.149253	0.847247	1.035743
35.000000	0.522388	-0.470960	0.107471	-0.030701	0.063971	-0.199992	0.062432	0.036247	-0.017533	-0.404642	-0.363805	-0.480936	0.068177	0.452043	-0.149286	-0.297899	-2.076437	-0.113391	0.077768	0.548950	-0.003836	-0.464515	0.440870	-0.240678	0.045091	0.363121	0.085316	-0.397143	-0.271382	0.572581	0.241261	0.090391	1.227137	1.271141
36.000000	0.407819	-0.458761	0.046740	-0.141014	0.008473	-0.256800	-0.007400	-0.033707	-0.184548	-0.443826	-0.371413	-0.547789	0.020396	0.258211	-0.173549	-0.190042	-1.691603	-0.240455	0.036049	0.476164	-0.002474	-0.393453	0.717943	-0.354775	-0.006920	0.343832	0.165075	-0.367501	-0.288706	0.607046	0.268954	0.017775	1.555122	1.484736
37.000000	0.295184	-0.430513	0.066101	-0.240725	-0.058357	-0.310543	-0.069856	-0.000805	-0.321025	-0.468678	-0.238091	-0.645544	0.058071	-0.098180	-0.179008	0.191412	-1.326024	-0.310183	0.065835	0.263798	0.019286	-0.268401	0.976363	-0.270029	0.020026	0.292226	0.237365	-0.287177	-0.273390	0.651393	0.266650	-0.107512	1.741500	1.607704
38.000000	0.190012	-0.380251	0.121993	-0.345448	-0.135185	-0.381167	-0.143954	0.081376	-0.374723	-0.480406	-0.035103	-0.754328	0.133167	-0.425972	-0.174761	0.706285	-0.934257	-0.334185	0.143794	0.030595	0.050255	-0.082963	1.101892	-0.083902	0.084404	0.249623	0.309945	-0.208171	-0.332652	0.638930	0.196989	-0.343554	1.801080	1.604277
39.000000	0.141588	-0.290437	0.203732	-0.435470	-0.220209	-0.417496	-0.154673	0.188147	-0.354071	-0.495075	0.072107	-0.731321	0.224915	-0.560694	-0.172648	0.965221	-0.460826	-0.254744	0.260107	-0.075458	0.066162	0.120168	1.050951	0.042914	0.188853	0.270986	0.392858	-0.159648	-0.480555	0.586444	0.121554	-0.613586	1.735237	1.494116
40.000000	0.173751	-0.187772	0.313686	-0.440045	-0.281641	-0.367199	-0.046446	0.311672	-0.299622	-0.518407	-0.004112	-0.503032	0.335794	-0.545389	-0.191860	0.658407	-0.005980	-0.048610	0.367571	-0.049678	0.077011	0.256079	0.903988	0.038338	0.295829	0.355603	0.473500	-0.110142	-0.618653	0.560202	0.133324	-0.702200	1.478985	1.246697
41.000000	0.233347	-0.098280	0.365575	-0.364110	-0.295889	-0.245310	0.148142	0.372564	-0.236205	-0.524230	-0.156008	-0.197326	0.393040	-0.472873	-0.223327	0.052357	0.272740	0.162702	0.383260	0.019331	0.097019	0.275688	0.678123	-0.020586	0.319025	0.446607	0.519216	-0.054084	-0.676534	0.562756	0.221718	-0.579809	1.074990	0.885066
42.000000	0.225205	-0.053365	0.306254	-0.303075	-0.285443	-0.115597	0.286724	0.314924	-0.162720	-0.503970	-0.256740	-0.030125	0.348705	-0.314758	-0.241335	-0.377443	0.207656	0.277247	0.315215	0.140863	0.117967	0.216373	0.395221	-0.071933	0.267595	0.526564	0.526778	-0.016433	-0.658345	0.543370	0.298234	-0.399676	0.740662	0.575248
43.000000	0.071451	-0.100989	0.192787	-0.320761	-0.270060	-0.059238	0.250059	0.199360	-0.074375	-0.476270	-0.316439	-0.101876	0.255211	-0.106783	-0.238000	-0.546915	-0.205500	0.296074	0.232953	0.305996	0.123413	0.127334	0.207957	-0.060639	0.214171	0.608973	0.508060	-0.017294	-0.620831	0.472586	0.293245	-0.287702	0.621649	0.480039
44.000000	-0.159250	-0.230612	0.073861	-0.380212	-0.234986	-0.070712	0.101658	0.104970	0.015757	-0.438270	-0.336714	-0.256043	0.162352	0.028325	-0.210414	-0.554015	-0.521901	0.274971	0.161959	0.388080	0.102637	-0.023017	0.216763	0.044955	0.171159	0.648353	0.445400	-0.095037	-0.637870	0.364433	0.198142	-0.316461	0.661676	0.622511
45.000000	-0.341083	-0.382449	-0.018664	-0.414838	-0.171585	-0.075242	-0.060126	0.041295	0.079725	-0.373024	-0.297504	-0.351367	0.082912	0.084891	-0.171113	-0.432018	-0.319725	0.221547	0.083324	0.340576	0.056759	-0.221010	0.336924	0.050354	0.103407	0.592785	0.342698	-0.234885	-0.738117	0.232584	0.033922	-0.489339	0.722373	0.818725
46.000000	-0.433165	-0.519344	-0.074064	-0.423612	-0.087736	-0.049809	-0.199278	-0.022112	0.123888	-0.276203	-0.262700	-0.402507	0.011464	0.203895	-0.141003	-0.324701	0.277587	0.085971	0.006265	0.316192	0.009334	-0.390620	0.219572	-0.157826	0.023755	0.493100	0.228739	-0.384551	-0.924663	0.106345	-0.148936	-0.733014	0.675491	0.880452
47.000000	-0.425665	-0.589245	-0.140630	-0.450662	0.004908	0.005597	-0.259913	-0.107057	0.172359	-0.170199	-0.267635	-0.376667	-0.072774	0.433805	-0.124140	-0.340578	0.909499	-0.039181	-0.046252	0.392021	-0.004604	-0.498230	-0.540074	-0.397804	-0.032966	0.419141	0.119232	-0.541967	-1.196238	0.042848	-0.288176	-0.978213	0.569992	0.843026
48.000000	-0.315770	-0.515209	-0.197983	-0.480393	0.098584	0.046757	-0.232948	-0.169204	0.173344	-0.107894	-0.253371	-0.316680	-0.143977	0.509551	-0.121548	-0.295062	1.221266	-0.041901	-0.075181	0.385727	-0.000224	-0.476348	-1.783061	-0.563128	-0.069901	0.321840	0.022964	-0.661345	-1.476012	0.011747	-0.399886	-1.214271	0.554064	0.753646
49.000000	-0.110116	-0.288534	-0.132369	-0.448342	0.197785	0.018684	-0.195418	-0.102217	0.068318	-0.097293	-0.176927	-0.395703	-0.106025	0.181442	-0.139816	0.000681	0.967908	0.046102	-0.035021	0.151170	-0.020546	-0.291354	-2.878614	-0.669652	-0.038036	0.137893	-0.057969	-0.672980	-1.644693	-0.049676	-0.508469	-1.385639	0.627116	0.583894
50.000000	0.122407	-0.032334	0.044056	-0.371980	0.282928	-0.038400	-0.179594	0.076125	-0.091407	-0.082602	-0.034519	-0.610010	0.043127	-0.338795	-0.165069	0.486613	0.363251	0.157214	0.089888	-0.192308	-0.056991	-0.087543	-3.421035	-0.643117	0.097301	-0.074045	-0.117859	-0.637309	-1.632717	-0.107167	-0.564138	-1.376922	0.699816	0.380641
51.000000	0.278300	0.109260	0.200621	-0.303451	0.320744	-0.050383	-0.142991	0.228241	-0.241784	-0.040123	0.141988	-0.780226	0.181871	-0.722490	-0.173228	0.960121	-0.173404	0.256832	0.224138	-0.451762	-0.077239	0.005634	-3.499989	-0.528940	0.242749	-0.221934	-0.147515	-0.631836	-1.473266	-0.143072	-0.546062	-1.191672	0.742339	0.219548
52.000000	0.341960	0.082963	0.288954	-0.247975	0.320885	-0.019522	-0.099659	0.308045	-0.346980	0.004026	0.250826	-0.846329	0.260039	-0.898016	-0.160369	1.215653	-0.601051	0.300063	0.322639	-0.574221	-0.075432	0.044960	-3.485660	-0.411847	0.329114	-0.302345	-0.160516	-0.633930	-1.295997	-0.206980	-0.511075	-0.992740	0.736243	0.102693
53.000000	0.381340	-0.071943	0.372628	-0.192705	0.304594	0.005171	-0.095327	0.382500	-0.370656	0.028610	0.250762	-0.871721	0.338712	-0.893656	-0.126217	1.224475	-0.991306	0.278108	0.406791	-0.596392	-0.060368	0.139159	-3.525155	-0.282896	0.394681	-0.355257	-0.178377	-0.600816	-1.226914	-0.327066	-0.520249	-0.910343	0.707563	0.014396
54.000000	0.430282	-0.230592	0.475151	-0.123677	0.271244	0.018988	-0.110290	0.481025	-0.320247	0.038459	0.212347	-0.853641	0.439895	-0.770904	-0.073143	1.114720	-1.239133	0.272157	0.481872	-0.568591	-0.036433	0.313374	-3.436100	-0.283513	0.460982	-0.389483	-0.198101	-0.524983	-1.303921	-0.464308	-0.577032	-0.914558	0.780405	0.060558
55.000000	0.425712	-0.279617	0.533041	-0.069567	0.235016	0.058847	-0.093385	0.535683	-0.251988	0.045493	0.179649	-0.744640	0.501274	-0.650822	-0.026041	0.955068	-1.201516	0.296221	0.513883	-0.542648	-0.011877	0.502451	-3.040121	-0.533961	0.494286	-0.412827	-0.208975	-0.418723	-1.384643	-0.557254	-0.637029	-0.920411	0.932570	0.313364
56.000000	0.331370	-0.210162	0.546108	-0.060159	0.214028	0.122862	-0.036225	0.532836	-0.197344	0.058322	0.143758	-0.617375	0.520189	-0.605007	-0.006250	0.762963	-0.903897	0.288215	0.516362	-0.540429	-0.010195	0.617901	-2.403517	-0.955449	0.500029	-0.435243	-0.207778	-0.307608	-1.294945	-0.581632	-0.653795	-0.856764	0.987905	0.603747
57.000000	0.229635	-0.051379	0.585252	-0.056314	0.213353	0.226961	0.111619	0.552928	-0.133799	0.078671	0.086743	-0.475116	0.566262	-0.602366	-0.008872	0.500161	-0.660478	0.245837	0.560538	-0.531118	-0.041852	0.552080	-1.839208	-1.305202	0.541131	-0.442540	-0.204481	-0.269502	-1.066625	-0.553861	-0.609870	-0.677337	0.853165	0.750089
58.000000	0.189307	0.105597	0.654406	-0.042768	0.245941	0.413569	0.365243	0.609427	-0.063389	0.103542	0.020568	-0.208343	0.629787	-0.607558	-0.019485	0.127038	-0.569083	0.158867	0.632394	-0.500686	-0.097480	0.290407	-1.656233	-1.427465	0.604448	-0.454984	-0.226456	-0.331737	-0.847478	-0.536355	-0.553850	-0.472779	0.618448	0.748849
59.000000	0.217104	0.133477	0.702652	-0.045957	0.306617	0.608940	0.554822	0.657879	-0.003744	0.136865	0.002540	0.056802	0.667939	-0.616428	-0.028398	-0.180868	-0.424238	0.061947	0.666460	-0.489648	-0.154644	0.032596	-1.949972	-1.380240	0.623144	-0.514745	-0.278219	-0.401005	-0.699292	-0.584252	-0.569477	-0.398672	0.500279	0.693332
60.000000	0.323116	0.071350	0.733030	-0.019054	0.371807	0.709968	0.612069	0.705837	0.087617	0.158962	0.025534	0.154787	0.706318	-0.571209	-0.030632	-0.300526	-0.251709	0.082165	0.683926	-0.497164	-0.203477	-0.120187	-2.488457	-1.181627	0.619008	-0.597946	-0.341174	-0.453738	-0.576809	-0.694366	-0.669604	-0.481018	0.622587	0.694191
61.000000	0.472485	0.044319	0.745531	0.081194	0.433731	0.691019	0.626178	0.733227	0.251997	0.153598	0.003088	0.118269	0.731790	-0.400835	-0.026889	-0.352375	-0.069182	0.201753	0.686929	-0.474705	-0.254305	-0.282641	-2.703255	-0.873103	0.613684	-0.645767	-0.406843	-0.536286	-0.413119	-0.820485	-0.788583	-0.616722	0.901322	0.757882
62.000000	0.598246	0.070447	0.697957	0.214769	0.482836	0.575054	0.615201	0.688262	0.441564	0.134394	-0.110208	0.011252	0.688215	-0.146867	-0.021719	-0.429508	0.179216	0.268206	0.629604	-0.409238	-0.312561	-0.517613	-2.057691	-0.565611	0.569538	-0.640029	-0.461117	-0.633628	-0.166208	-0.925901	-0.876874	-0.679365	1.131023	0.751605
63.000000	0.666644	0.073180	0.620814	0.334272	0.513719	0.467141	0.561319	0.620318	0.573567	0.121603	-0.264591	-0.102884	0.614912	0.089580	-0.016461	-0.520128	0.279659	0.201547	0.549317	-0.323831	-0.366281	-0.757413	-0.630813	-0.303812	0.503954	-0.606990	-0.497259	-0.720764	0.087610	-0.974478	-0.897759	-0.595632	1.163472	0.566986
64.000000	0.664454	0.003778	0.558972	0.406311	0.544675	0.444876	0.445040	0.568250	0.620557	0.141475	-0.342621	-0.234036	0.557452	0.280662	-0.011959	-0.540588	0.055489	0.023345	0.486458	-0.234117	-0.392650	-0.890105	0.985402	-0.123195	0.447340	-0.580027	-0.532716	-0.803154	0.186924	-0.947481	-0.863215	-0.421882	1.012381	0.267849
65.000000	0.631289	-0.106656	0.497722	0.438706	0.587672	0.430131	0.257514	0.499921	0.620751	0.190635	-0.331403	-0.433207	0.489134	0.452562	-0.009779	-0.478747	-0.379325	-0.175203	0.418685	-0.141758	-0.393800	-0.892142	2.275117	-0.038196	0.376497	-0.581341	-0.577893	-0.875491	0.075117	-0.914243	-0.857642	-0.304867	0.823343	0.043752
66.000000	0.644179	-0.164911	0.474897	0.495165	0.637120	0.368382	0.110986	0.462303	0.624939	0.241981	-0.344703	-0.587315	0.449573	0.532263	-0.010838	-0.511784	-0.730421	-0.300889	0.376161	-0.085569	-0.375790	-0.810888	2.938148	0.072984	0.328554	-0.612489	-0.626282	-0.874688	-0.118001	-0.911559	-0.907710	-0.323844	0.727368	-0.008928
67.000000	0.743422	-0.033916	0.544818	0.597717	0.680075	0.304840	0.145930	0.533533	0.662375	0.268819	-0.430677	-0.567573	0.505598	0.457747	-0.014572	-0.737907	-0.733856	-0.277963	0.406228	-0.103014	-0.344690	-0.718677	2.858961	0.254778	0.373633	-0.650964	-0.665503	-0.787142	-0.210162	-0.911114	-0.986059	-0.466880	0.726533	0.012842
68.000000	0.904683	0.275552	0.642939	0.669668	0.699947	0.265801	0.330613	0.641155	0.705984	0.255177	-0.515017	-0.429211	0.596483	0.315612	-0.014043	-0.941074	-0.408823	-0.068859	0.454947	-0.163121	-0.320376	-0.617853	2.161709	0.377793	0.453670	-0.681328	-0.685904	-0.642353	-0.129283	-0.932703	-1.065276	-0.651445	0.718908	-0.018657
69.000000	1.064437	0.560332	0.672183	0.641880	0.686916	0.258099	0.525176	0.657945	0.685133	0.214169	-0.504283	-0.286652	0.615574	0.162230	-0.010836	-0.846453	-0.024149	0.202340	0.461181	-0.228550	-0.300410	-0.390728	1.133860	0.463545	0.472836	-0.694291	-0.676080	-0.406527	0.094301	-0.993416	-1.097907	-0.741999	0.614574	-0.086733
70.000000	1.193084	0.731324	0.616483	0.542017	0.659315	0.277159	0.668999	0.582765	0.605069	0.181134	-0.376469	-0.151769	0.551682	0.040246	-0.011648	-0.435607	0.234813	0.349406	0.426792	-0.262640	-0.276014	-0.131496	0.049783	0.561859	0.419054	-0.679384	-0.647667	-0.186693	0.300636	-1.076215	-1.096676	-0.736610	0.419867	-0.111736
71.000000	1.237199	0.834056	0.520802	0.432860	0.634789	0.328858	0.776606	0.477312	0.532124	0.189010	-0.127314	-0.019206	0.463023	0.009460	0.000761	0.193174	0.417388	0.338519	0.363897	-0.232833	-0.243763	-0.000501	-0.833921	0.605600	0.335798	-0.636643	-0.635550	-0.138832	0.296040	-1.181685	-1.164450	-0.794444	0.137933	-0.085937
72.000000	1.151869	0.864320	0.480902	0.370125	0.616490	0.431122	0.860222	0.432981	0.502786	0.225050	0.186447	0.079875	0.437236	0.057610	0.033362	0.861373	0.617328	0.250101	0.346235	-0.139404	-0.204568	0.047191	-1.224768	0.599948	0.324435	-0.551589	-0.649853	-0.206715	0.109471	-1.306675	-1.318090	-0.978492	-0.281694	-0.055639
73.000000	1.014196	0.817331	0.587534	0.416656	0.620180	0.579013	0.986552	0.540161	0.543627	0.259867	0.392035	0.267476	0.554213	0.158827	0.055930	1.174880	0.911337	0.137612	0.467605	0.007464	-0.185393	0.014905	-0.965204	0.587203	0.462706	-0.424709	-0.676110	-0.269758	-0.023806	-1.430054	-1.459463	-1.207342	-0.805672	-0.076823
74.000000	0.905466	0.742541	0.780312	0.559507	0.645077	0.742955	1.212892	0.732821	0.646401	0.283663	0.418946	0.632952	0.749446	0.264858	0.057025	0.951936	1.302987	0.028015	0.660422	0.143828	-0.202758	-0.064733	-0.227872	0.598638	0.668419	-0.310571	-0.702102	-0.242715	0.057933	-1.527942	-1.537828	-1.386280	-1.251731	-0.128334
75.000000	0.878393	0.755759	0.925771	0.693328	0.670561	0.817723	1.440729	0.878820	0.747832	0.297017	0.339847	0.960074	0.893842	0.325530	0.047872	0.456808	1.523960	0.010722	0.793197	0.213282	-0.228624	-0.092646	0.515758	0.688669	0.808245	-0.233301	-0.718433	-0.130284	0.277592	-1.539214	-1.545452	-1.448538	-1.417170	-0.126783
76.000000	0.932280	0.892108	0.976073	0.752051	0.675418	0.672958	1.512180	0.940890	0.795967	0.296172	0.190320	1.012314	0.947106	0.379000	0.042342	-0.038339	1.258170	0.108103	0.846512	0.263438	-0.230615	-0.077916	0.740252	0.865819	0.859818	-0.157750	-0.717760	-0.040067	0.449277	-1.445157	-1.483772	-1.399886	-1.240135	-0.073631
77.000000	0.947220	0.991654	0.898796	0.725430	0.645262	0.386323	1.396943	0.886987	0.789443	0.273740	0.020701	0.814179	0.884213	0.494069	0.062433	-0.398267	0.606036	0.169744	0.793490	0.358386	-0.210263	-0.078964	0.314940	0.996247	0.804952	-0.072392	-0.707695	-0.044701	0.477224	-1.337775	-1.408593	-1.301398	-0.844096	-0.069930
78.000000	0.835955	0.939436	0.670789	0.613163	0.603309	0.211712	1.189954	0.683108	0.732231	0.251897	-0.045320	0.537281	0.677067	0.638905	0.095777	-0.492359	-0.045932	0.061542	0.590852	0.468867	-0.183094	-0.126934	-0.270763	1.006622	0.594797	-0.018218	-0.699086	-0.127362	0.419050	-1.289045	-1.365515	-1.177068	-0.462791	-0.154536
79.000000	0.618298	0.806732	0.339957	0.439459	0.593671	0.243095	0.974936	0.363504	0.625481	0.256755	0.053455	0.313400	0.360447	0.684095	0.109557	-0.257785	-0.339374	-0.220583	0.295488	0.486531	-0.161010	-0.183032	-0.374995	0.973368	0.282132	-0.051387	-0.703229	-0.203000	0.394995	-1.326822	-1.368777	-1.056064	-0.232507	-0.236294
80.000000	0.378522	0.711874	0.018128	0.265660	0.630814	0.371149	0.783849	0.034965	0.510140	0.279193	0.239654	0.186104	0.040175	0.557613	0.100886	0.130235	-0.227320	-0.563922	0.013150	0.355273	-0.162425	-0.218906	0.145885	0.889295	-0.007648	-0.161379	-0.731700	-0.224204	0.449545	-1.461618	-1.469810	-1.027752	-0.121233	-0.259369
81.000000	0.237476	0.672284	-0.192180	0.163088	0.710212	0.537164	0.648406	-0.180457	0.381298	0.298060	0.376966	0.153247	-0.184849	0.246341	0.084136	0.342621	-0.125554	-0.856647	-0.188792	0.091440	-0.205794	-0.316906	0.924315	0.666366	-0.216659	-0.319587	-0.794349	-0.245018	0.541603	-1.675692	-1.700551	-1.136601	-0.019271	-0.270952
82.000000	0.294119	0.688362	-0.263450	0.168986	0.825216	0.754203	0.630950	-0.245615	0.245596	0.322915	0.371689	0.224582	-0.274561	-0.160931	0.062332	0.190468	-0.312100	-1.029048	-0.294064	-0.208731	-0.281015	-0.539152	1.527368	0.334875	-0.327537	-0.495820	-0.887547	-0.327987	0.642433	-1.903414	-1.964094	-1.273292	0.105359	-0.301808
83.000000	0.525573	0.782382	-0.241441	0.261207	0.947318	0.962646	0.739082	-0.219433	0.204448	0.373483	0.254212	0.331859	-0.255638	-0.425669	0.038017	-0.206638	-0.683911	-1.041975	-0.324556	-0.379819	-0.358713	-0.800704	1.715923	0.027532	-0.338920	-0.601199	-0.985335	-0.460526	0.716020	-2.052005	-2.136370	-1.313845	0.135140	-0.347363
84.000000	0.819321	0.899357	-0.172124	0.395164	1.043553	1.100054	0.865023	-0.155231	0.301504	0.435014	0.160818	0.331834	-0.184003	-0.439945	0.032076	-0.481511	-1.171566	-0.963704	-0.296270	-0.381508	-0.407247	-0.991955	1.533691	-0.188749	-0.293243	-0.619892	-1.075628	-0.624918	0.673607	-2.131865	-2.234976	-1.299375	0.067350	-0.415522
85.000000	1.070471	0.981011	-0.099679	0.514072	1.102885	1.174778	0.902908	-0.103627	0.444105	0.491049	0.271129	0.147998	-0.116405	-0.316892	0.061730	-0.269885	-1.643266	-0.935269	-0.252494	-0.323469	-0.417441	-1.066449	1.286402	-0.220490	-0.253391	-0.628190	-1.164614	-0.808429	0.466720	-2.227929	-2.350437	-1.322575	-0.021399	-0.505322
86.000000	1.181080	0.996103	-0.105296	0.549822	1.115690	1.207536	0.856069	-0.134679	0.504821	0.532904	0.637820	-0.137547	-0.122524	-0.197365	0.116059	0.457942	-1.682786	-1.016891	-0.278075	-0.288397	-0.414755	-0.964962	1.310705	-0.052784	-0.287557	-0.670516	-1.231749	-0.911370	0.189375	-2.366083	-2.479158	-1.354610	-0.161584	-0.646723
87.000000	1.161583	0.953688	-0.182562	0.512779	1.075448	1.217384	0.839426	-0.225457	0.465352	0.536345	0.956689	-0.234210	-0.194799	-0.135468	0.151481	1.165284	-1.073266	-1.090783	-0.354563	-0.292975	-0.402496	-0.695451	1.611694	0.063035	-0.376905	-0.730427	-1.226929	-0.833120	0.037480	-2.484184	-2.532216	-1.307333	-0.337618	-0.878346
88.000000	1.130365	0.926905	-0.241768	0.483754	1.015379	1.226731	0.938503	-0.293099	0.376927	0.493610	0.961451	0.029512	-0.248037	-0.139250	0.140563	1.327405	-0.224035	-1.005369	-0.395348	-0.337681	-0.388047	-0.406342	1.746630	-0.092791	-0.431390	-0.774191	-1.155941	-0.626826	0.039101	-2.534765	-2.510053	-1.238124	-0.459681	-1.145596
89.000000	1.134649	0.924582	-0.261892	0.489741	0.979658	1.251999	1.088290	-0.313664	0.281619	0.441471	0.817220	0.429453	-0.256901	-0.197401	0.104871	1.070965	0.334621	-0.807322	-0.390166	-0.400204	-0.397886	-0.213592	1.313327	-0.509213	-0.430554	-0.797174	-1.084528	-0.459007	-0.005047	-2.567777	-2.490653	-1.275160	-0.535698	-1.364498
90.000000	1.132612	0.870733	-0.312623	0.466438	0.966932	1.296124	1.205852	-0.351868	0.187692	0.419088	0.737158	0.714563	-0.298280	-0.296568	0.066058	0.766596	0.536793	-0.714615	-0.421764	-0.485083	-0.429898	-0.114315	0.617442	-0.877114	-0.464548	-0.836043	-1.032990	-0.400484	-0.160939	-2.643107	-2.488389	-1.372435	-0.718910	-1.482992
91.000000	1.122892	0.773360	-0.419008	0.395658	0.959142	1.345077	1.293021	-0.450294	0.082569	0.415703	0.721331	0.876968	-0.408646	-0.427879	0.018495	0.532528	0.492640	-0.749839	-0.544973	-0.606631	-0.467476	-0.087583	0.342685	-0.860962	-0.592150	-0.915314	-0.977638	-0.400634	-0.266301	-2.733043	-2.476572	-1.407273	-1.073832	-1.485419
92.000000	1.129507	0.707206	-0.537266	0.330186	0.955955	1.375117	1.327464	-0.571317	-0.003202	0.408726	0.740507	0.909811	-0.540600	-0.537457	-0.031098	0.366968	0.206388	-0.768958	-0.706234	-0.726663	-0.491164	-0.094473	0.605196	-0.564661	-0.763966	-1.013174	-0.924857	-0.413107	-0.234647	-2.785297	-2.463247	-1.388001	-1.398572	-1.470986
93.000000	1.125029	0.721908	-0.639989	0.294343	0.959162	1.367638	1.304591	-0.689040	-0.018115	0.402607	0.762315	0.795840	-0.672151	-0.575042	-0.067423	0.269190	-0.091272	-0.826715	-0.844245	-0.814595	-0.490639	-0.069296	0.987042	-0.291476	-0.916302	-1.109799	-0.891739	-0.417822	-0.124755	-2.805235	-2.482054	-1.364909	-1.546145	-1.580240
94.000000	1.100797	0.865554	-0.710454	0.266977	0.974616	1.325438	1.342459	-0.778928	0.009216	0.402122	0.722784	0.686239	-0.776267	-0.578936	-0.098888	0.145594	-0.048336	-1.012686	-0.936865	-0.893073	-0.475227	-0.018190	1.174022	-0.103978	-1.012324	-1.212338	-0.875727	-0.397257	0.009348	-2.821182	-2.505199	-1.288505	-1.568220	-1.747704
95.000000	1.084304	1.121596	-0.744111	0.207212	0.994199	1.237388	1.484871	-0.812388	-0.005722	0.398725	0.656626	0.698936	-0.823287	-0.639699	-0.123104	0.036075	0.352653	-1.290598	-0.976322	-0.987245	-0.451523	0.040709	1.214884	0.094811	-1.047347	-1.332942	-0.871095	-0.330797	0.107878	-2.864910	-2.502380	-1.129753	-1.512767	-1.812521
96.000000	1.078925	1.332718	-0.762150	0.131056	1.008784	1.117075	1.606438	-0.815445	-0.042109	0.395191	0.658019	0.776416	-0.853670	-0.751003	-0.118885	0.129980	0.799951	-1.659499	-0.994154	-1.080335	-0.425338	0.139241	1.282816	0.265822	-1.065680	-1.471391	-0.889899	-0.261805	0.029107	-2.985761	-2.552247	-1.030277	-1.490622	-1.820300
97.000000	1.058695	1.326097	-0.802285	0.085942	1.032956	1.055596	1.569009	-0.827811	-0.038993	0.406553	0.783364	0.763294	-0.915433	-0.845239	-0.078311	0.528588	0.949197	-2.064678	-1.044491	-1.173310	-0.406355	0.322305	1.337839	0.287343	-1.139148	-1.637729	-0.954645	-0.255179	-0.318957	-3.220422	-2.742197	-1.159455	-1.566959	-1.871172
98.000000	1.039712	1.145956	-0.858163	0.070007	1.065550	1.075119	1.348699	-0.861570	-0.015329	0.425021	0.992148	0.521461	-0.991583	-0.905411	-0.019402	1.193804	0.708107	-2.346597	-1.131674	-1.272448	-0.384481	0.632349	1.291617	0.151710	-1.259433	-1.838269	-1.046148	-0.254204	-0.764269	-3.562548	-3.058776	-1.519006	-1.640888	-1.950782
99.000000	1.133720	0.990842	-0.889373	0.070457	1.096624	1.112510	1.114914	-0.899191	-0.005930	0.433663	1.106943	0.226515	-1.034683	-0.941110	0.020551	1.755455	0.395595	-2.409266	-1.202752	-1.339160	-0.360388	0.953702	1.197284	-0.050462	-1.330863	-2.025514	-1.117175	-0.199747	-1.045254	-3.939363	-3.409416	-1.969956	-1.594274	-2.014209
100.000000	1.400265	1.003563	-0.848374	0.118193	1.124678	1.160756	1.081098	-0.865649	0.001192	0.435548	1.008843	0.240796	-0.976270	-0.955398	0.019246	1.717383	0.475666	-2.204982	-1.173603	-1.345205	-0.365171	0.967474	1.126763	-0.260480	-1.280117	-2.118332	-1.143924	-0.167818	-1.093315	-4.229954	-3.665828	-2.325850	-1.402565	-2.065583
101.000000	1.736122	1.201206	-0.700293	0.226769	1.149209	1.247599	1.281150	-0.720526	0.023583	0.438130	0.779668	0.583944	-0.797780	-0.939290	-0.003753	1.080578	0.887896	-1.757035	-1.021211	-1.306290	-0.401061	0.531181	1.088436	-0.480220	-1.112595	-2.089668	-1.145456	-0.226659	-0.980600	-4.384616	-3.773140	-2.472004	-1.145128	-2.209765
102.000000	1.979972	1.485643	-0.505723	0.343385	1.155628	1.343114	1.541282	-0.528004	0.043362	0.431024	0.572055	0.925007	-0.591318	-0.895278	-0.011907	0.372287	1.201328	-1.230388	-0.831842	-1.250469	-0.435082	-0.058093	1.002644	-0.693727	-0.911837	-1.996146	-1.143721	-0.343469	-0.848153	-4.462596	-3.809703	-2.450547	-0.869045	-2.479875
103.000000	2.021954	1.709953	-0.375226	0.410747	1.122604	1.381173	1.655711	-0.388511	0.051061	0.411938	0.481540	1.020807	-0.460850	-0.842619	0.011717	0.093784	1.342537	-0.839435	-0.706548	-1.197982	-0.444731	-0.405596	0.865489	-0.870647	-0.778052	-1.912038	-1.134321	-0.429918	-0.818487	-4.529735	-3.843145	-2.376680	-0.645100	-2.755434
104.000000	1.842270	1.756725	-0.349607	0.405039	1.047844	1.345710	1.606167	-0.353049	0.054236	0.395184	0.490116	0.906007	-0.429741	-0.752518	0.059772	0.279348	1.428962	-0.699700	-0.667338	-1.127586	-0.413389	-0.405307	0.670334	-0.988977	-0.738457	-1.857405	-1.107617	-0.421612	-0.892785	-4.596254	-3.868655	-2.301186	-0.589403	-2.929562
105.000000	1.524677	1.641249	-0.367813	0.350677	0.942933	1.255011	1.470263	-0.367230	0.086180	0.388644	0.510478	0.679862	-0.429592	-0.556868	0.108415	0.639191	1.339791	-0.761530	-0.645367	-0.983047	-0.346313	-0.202684	0.203034	-1.067856	-0.721442	-1.788834	-1.051347	-0.364787	-1.038453	-4.672809	-3.889703	-2.226292	-0.657097	-2.937098
106.000000	1.219440	1.467672	-0.363499	0.300260	0.828910	1.113393	1.259080	-0.363090	0.156532	0.387821	0.557568	0.369717	-0.406271	-0.310799	0.150507	1.087366	1.053938	-0.926809	-0.598710	-0.807762	-0.276712	0.068857	-0.679345	-1.106845	-0.681364	-1.714269	-0.979417	-0.323241	-1.209337	-4.779779	-3.915684	-2.163195	-0.703431	-2.770186
107.000000	1.042059	1.344963	-0.299463	0.280447	0.724383	0.960137	1.044632	-0.305495	0.200252	0.379839	0.687471	0.089446	-0.334474	-0.172334	0.185631	1.608949	0.826804	-1.079027	-0.517061	-0.713671	-0.223517	0.359587	-1.846876	-0.987895	-0.617576	-1.690777	-0.910013	-0.272567	-1.298766	-4.867597	-3.909541	-2.074064	-0.723775	-2.532723
108.000000	1.024215	1.385236	-0.139736	0.314456	0.656333	0.881839	1.027058	-0.143394	0.225535	0.356515	0.777258	0.082769	-0.168091	-0.184681	0.179148	1.786799	0.823543	-1.134330	-0.349976	-0.727259	-0.189164	0.588492	-3.006520	-0.705699	-0.466971	-1.696230	-0.835481	-0.171371	-1.227871	-4.862530	-3.834594	-1.943780	-0.854514	-2.353033
109.000000	1.118564	1.555413	0.049520	0.403824	0.628098	0.883592	1.234669	0.063715	0.289788	0.310531	0.699156	0.382988	0.029874	-0.253998	0.129665	1.372955	1.024385	-1.125771	-0.146270	-0.800130	-0.173258	0.716639	-3.819107	-0.453184	-0.253333	-1.693049	-0.757764	0.008660	-1.010847	-4.778743	-3.720396	-1.830140	-1.095776	-2.283616
110.000000	1.250121	1.718162	0.131107	0.488718	0.611129	0.888231	1.483626	0.150130	0.363528	0.247682	0.539211	0.718839	0.113641	-0.284555	0.090475	0.788436	1.234968	-1.064914	-0.059297	-0.869077	-0.187580	0.761325	-4.049011	-0.344945	-0.139881	-1.701769	-0.701605	0.218863	-0.751725	-4.712552	-3.658036	-1.808111	-1.222297	-2.297872
111.000000	1.413594	1.831800	0.110786	0.537323	0.619540	0.883743	1.662201	0.121593	0.390010	0.190164	0.414109	0.872187	0.098484	-0.299929	0.075158	0.433148	1.258039	-0.886219	-0.081716	-0.906625	-0.241227	0.689541	-3.756691	-0.331665	-0.136117	-1.725871	-0.694699	0.298592	-0.591305	-4.750120	-3.739219	-1.961263	-1.102228	-2.332978
112.000000	1.625555	1.919912	0.107936	0.582191	0.676657	0.871460	1.715790	0.119011	0.360914	0.157663	0.341637	0.818170	0.111726	-0.395650	0.045391	0.347295	1.057521	-0.543682	-0.077531	-0.944942	-0.310667	0.541970	-3.226836	-0.279707	-0.119288	-1.741044	-0.722048	0.217577	-0.535719	-4.859119	-3.934646	-2.240950	-0.812105	-2.354180
113.000000	1.820183	1.967399	0.150003	0.649626	0.751044	0.801587	1.609428	0.156833	0.333237	0.155682	0.279788	0.628970	0.164232	-0.535374	-0.006910	0.426190	0.566367	-0.106601	-0.039374	-0.989960	-0.368829	0.429432	-2.737587	-0.177086	-0.089325	-1.743736	-0.744134	0.102905	-0.497130	-4.945900	-4.110393	-2.441762	-0.487168	-2.407752
114.000000	1.923220	1.915758	0.196374	0.700433	0.802095	0.685345	1.371826	0.177239	0.331580	0.168586	0.232525	0.352895	0.189881	-0.603138	-0.044296	0.570727	-0.103069	0.212960	-0.031487	-0.988187	-0.396804	0.382222	-2.318357	-0.190964	-0.093830	-1.731996	-0.757799	0.020778	-0.436433	-5.000368	-4.187211	-2.432225	-0.248773	-2.533938
115.000000	1.930955	1.719987	0.204028	0.668180	0.830509	0.634568	1.070254	0.149169	0.294746	0.180810	0.269074	-0.007883	0.155908	-0.609079	-0.050381	0.807838	-0.626229	0.148036	-0.077215	-0.950424	-0.384085	0.381143	-1.814207	-0.464622	-0.152424	-1.717465	-0.780129	-0.027389	-0.381927	-5.053835	-4.193547	-2.257543	-0.154502	-2.688627
116.000000	1.910066	1.457149	0.151181	0.584236	0.855163	0.706400	0.819769	0.071135	0.224621	0.203356	0.364305	-0.343920	0.074839	-0.595704	-0.048183	1.066068	-0.871034	-0.296132	-0.175453	-0.924779	-0.356886	0.400364	-1.232386	-0.960779	-0.268546	-1.713074	-0.806981	-0.044065	-0.379874	-5.112896	-4.188860	-2.059586	-0.230549	-2.827367
117.000000	1.913512	1.294263	0.062453	0.534379	0.877375	0.808010	0.690760	-0.027079	0.206283	0.225216	0.431748	-0.502511	-0.030314	-0.514919	-0.047139	1.188822	-0.860684	-0.809505	-0.313284	-0.890973	-0.351940	0.393712	-0.728143	-1.386407	-0.416091	-1.726506	-0.830236	-0.037730	-0.379122	-5.193641	-4.207560	-1.955405	-0.458112	-2.965895
118.000000	1.918393	1.260172	-0.059527	0.515113	0.873220	0.864140	0.651059	-0.144367	0.262288	0.207122	0.399705	-0.476344	-0.165786	-0.276616	-0.029451	1.103565	-0.709270	-1.201806	-0.482058	-0.770314	-0.351653	0.325627	-0.487411	-1.512134	-0.581187	-1.746679	-0.843769	-0.036076	-0.350074	-5.311185	-4.258467	-1.976768	-0.710234	-3.107629
119.000000	1.902862	1.224412	-0.241408	0.459476	0.828050	0.896385	0.643980	-0.302793	0.336969	0.156375	0.251906	-0.389599	-0.347554	0.104202	-0.002890	0.788814	-0.581407	-1.447035	-0.672208	-0.543578	-0.313992	0.289057	-0.527964	-1.442553	-0.757303	-1.720284	-0.825160	-0.007791	-0.318962	-5.441880	-4.320035	-2.102287	-0.835328	-3.208240
120.000000	1.849686	1.158951	-0.442595	0.358694	0.758469	0.910066	0.670026	-0.469973	0.362640	0.101435	0.077166	-0.324255	-0.532703	0.372834	0.009478	0.347515	-0.500474	-1.563413	-0.835483	-0.363636	-0.260103	0.319252	-0.565532	-1.248735	-0.909138	-1.662813	-0.767947	0.082755	-0.240810	-5.567306	-4.375305	-2.272472	-0.841205	-3.293397
121.000000	1.760834	1.154007	-0.509651	0.290360	0.681284	0.916576	0.786227	-0.516458	0.329184	0.049364	-0.063095	-0.187349	-0.583248	0.321241	0.007545	-0.101964	-0.379187	-1.596791	-0.857219	-0.347736	-0.221585	0.249307	-0.404911	-0.878443	-0.929967	-1.607213	-0.688829	0.159205	-0.099929	-5.663598	-4.391118	-2.387363	-0.842683	-3.399346
122.000000	1.684850	1.198368	-0.362567	0.292095	0.606593	0.953475	0.972603	-0.367522	0.252522	-0.008688	-0.148841	0.027066	-0.425333	-0.002590	-0.002001	-0.470908	-0.263294	-1.620590	-0.672745	-0.460892	-0.192258	0.057286	-0.220537	-0.423608	-0.751419	-1.538900	-0.604592	0.183556	0.016560	-5.685405	-4.324519	-2.415603	-0.884242	-3.492858
123.000000	1.641173	1.253370	-0.148491	0.295538	0.534952	0.991546	1.105992	-0.157583	0.118396	-0.075724	-0.131057	0.132789	-0.202725	-0.436359	-0.008656	-0.611917	-0.235081	-1.760287	-0.411438	-0.650137	-0.163526	-0.093983	-0.279947	-0.058881	-0.499263	-1.479823	-0.526296	0.184966	0.024012	-5.629553	-4.216981	-2.465624	-0.903954	-3.551631
124.000000	1.618851	1.282563	-0.055005	0.253243	0.454081	0.958673	1.075933	-0.068268	-0.047824	-0.133460	-0.052773	0.066034	-0.118277	-0.796053	-0.002324	-0.556225	-0.218000	-1.979785	-0.286144	-0.831915	-0.123403	-0.101046	-0.623911	0.107532	-0.367223	-1.452339	-0.451756	0.202782	-0.050161	-5.547978	-4.152615	-2.642943	-0.810273	-3.586534
125.000000	1.601330	1.213463	-0.134213	0.164840	0.360205	0.810916	0.884293	-0.153357	-0.203036	-0.174033	-0.009528	-0.066572	-0.209962	-1.001950	0.021729	-0.445813	-0.092463	-2.090542	-0.356316	-0.930643	-0.059035	0.036744	-1.026783	0.059443	-0.421175	-1.448712	-0.381933	0.273955	-0.109394	-5.492647	-4.165987	-2.942250	-0.633829	-3.619921
126.000000	1.521182	1.038520	-0.380169	-0.003413	0.262814	0.581226	0.631131	-0.408553	-0.360305	-0.192505	0.020749	-0.165798	-0.441215	-1.098813	0.068762	-0.234144	0.163043	-2.162650	-0.590020	-0.968604	0.027752	0.229223	-1.237361	-0.218504	-0.642093	-1.475480	-0.331575	0.351778	-0.112633	-5.501947	-4.255127	-3.300086	-0.481065	-3.650020
127.000000	1.340558	0.773744	-0.728741	-0.220184	0.184699	0.336846	0.347248	-0.767788	-0.505034	-0.186062	0.099162	-0.283028	-0.760783	-1.128109	0.116077	0.146652	0.378438	-2.355278	-0.932507	-0.976519	0.108565	0.406855	-1.215124	-0.680961	-0.976704	-1.539241	-0.300777	0.388414	-0.093417	-5.611398	-4.401638	-3.668274	-0.409832	-3.670848
128.000000	1.133339	0.473333	-1.050478	-0.389174	0.140898	0.107079	0.014217	-1.092867	-0.562609	-0.166633	0.183097	-0.495751	-1.061057	-1.074713	0.143849	0.563746	0.349684	-2.556931	-1.267235	-0.938704	0.168309	0.561503	-1.043759	-1.109498	-1.319819	-1.595981	-0.284747	0.376990	-0.105805	-5.784891	-4.562952	-4.018011	-0.421759	-3.685633
129.000000	0.974009	0.243514	-1.296805	-0.494601	0.118661	-0.106293	-0.311660	-1.337820	-0.535271	-0.145637	0.145476	-0.757670	-1.307982	-0.949119	0.162440	0.741223	0.022974	-2.621495	-1.534646	-0.868855	0.204600	0.682505	-0.708087	-1.365297	-1.602189	-1.618390	-0.281101	0.338980	-0.157015	-5.929468	-4.694137	-4.306803	-0.480221	-3.758394
130.000000	0.858852	0.100457	-1.498226	-0.553723	0.114970	-0.279601	-0.560178	-1.551330	-0.488485	-0.139103	-0.054504	-1.034637	-1.539563	-0.784033	0.165196	0.520946	-0.549056	-2.624371	-1.758948	-0.791018	0.218143	0.732999	-0.115515	-1.596034	-1.840272	-1.627808	-0.280165	0.304130	-0.214899	-6.000248	-4.760871	-4.503738	-0.570574	-3.972718
131.000000	0.794935	-0.007589	-1.683311	-0.565065	0.136608	-0.380637	-0.717515	-1.750983	-0.418696	-0.146552	-0.302447	-1.318507	-1.764879	-0.550982	0.164981	0.045403	-1.276375	-2.763345	-1.979340	-0.676992	0.224732	0.599250	0.670678	-1.958082	-2.067831	-1.615744	-0.301589	0.184816	-0.291283	-6.036398	-4.770868	-4.624217	-0.654622	-4.303540
132.000000	0.803028	-0.112085	-1.867292	-0.549429	0.167807	-0.447333	-0.839113	-1.931369	-0.328575	-0.153573	-0.467028	-1.600887	-1.969480	-0.285779	0.188656	-0.353785	-1.953875	-3.071964	-2.198730	-0.542381	0.223608	0.296087	1.371416	-2.391625	-2.286233	-1.598432	-0.356463	-0.068930	-0.455351	-6.113845	-4.810493	-4.758060	-0.625567	-4.660560
133.000000	0.821941	-0.226834	-2.035613	-0.524557	0.197891	-0.496899	-0.958625	-2.095183	-0.256969	-0.152919	-0.497993	-1.841597	-2.140203	-0.147628	0.216358	-0.489267	-2.270615	-3.424535	-2.404342	-0.491079	0.218826	0.033694	1.717430	-2.783228	-2.499736	-1.645721	-0.414249	-0.322510	-0.734732	-6.263366	-4.953380	-5.040960	-0.506243	-4.999469
134.000000	0.806841	-0.320178	-2.168768	-0.481874	0.227777	-0.479765	-1.020602	-2.232892	-0.186426	-0.144164	-0.456555	-1.952219	-2.278163	-0.179680	0.220862	-0.516637	-2.185743	-3.750435	-2.586476	-0.561470	0.234426	-0.120177	1.629869	-3.130374	-2.699854	-1.769530	-0.448638	-0.476093	-1.086485	-6.450938	-5.158757	-5.500833	-0.413382	-5.323102
135.000000	0.775767	-0.382604	-2.302852	-0.428615	0.242466	-0.431605	-1.034574	-2.363925	-0.097434	-0.136092	-0.432605	-1.947777	-2.412066	-0.230836	0.202164	-0.600602	-1.958861	-4.068736	-2.749643	-0.655425	0.275475	-0.218918	1.148490	-3.588112	-2.865645	-1.895255	-0.444631	-0.554665	-1.466249	-6.612026	-5.338524	-6.027714	-0.372745	-5.579909
136.000000	0.730610	-0.484793	-2.458033	-0.403185	0.223675	-0.449793	-1.138091	-2.513149	-0.016716	-0.123653	-0.395365	-1.948846	-2.549808	-0.229785	0.183368	-0.578065	-1.647451	-4.390732	-2.907513	-0.681121	0.334608	-0.167140	0.393451	-4.286999	-3.004219	-1.959690	-0.407043	-0.570245	-1.860282	-6.724796	-5.460980	-6.551645	-0.362610	-5.693703
137.000000	0.662764	-0.614044	-2.575976	-0.433991	0.162521	-0.540795	-1.325966	-2.628591	-0.000054	-0.092866	-0.252148	-1.976580	-2.645151	-0.299000	0.195794	-0.211647	-1.094233	-4.627108	-3.017203	-0.703323	0.407691	0.131260	-0.403267	-4.993966	-3.093014	-1.976235	-0.358315	-0.516262	-2.281043	-6.824353	-5.552312	-7.079513	-0.311053	-5.654658
138.000000	0.550220	-0.729656	-2.639098	-0.510036	0.058743	-0.674037	-1.507610	-2.674716	-0.063686	-0.052949	0.014407	-2.081043	-2.690844	-0.467945	0.247991	0.474378	-0.488390	-4.757926	-3.055193	-0.792527	0.477184	0.534189	-1.109870	-5.479936	-3.121290	-1.977739	-0.306734	-0.455677	-2.709788	-6.942802	-5.646977	-7.573950	-0.207912	-5.571279
139.000000	0.354212	-0.973821	-2.682792	-0.619313	-0.071638	-0.827627	-1.772415	-2.690646	-0.153075	-0.026619	0.302525	-2.429850	-2.725105	-0.561180	0.317564	1.227821	-0.255361	-4.896769	-3.057168	-0.843864	0.537856	0.851204	-1.818248	-5.868435	-3.125837	-1.952108	-0.245925	-0.442251	-3.056578	-7.049040	-5.716172	-7.961177	-0.195590	-5.623836
140.000000	0.109432	-1.380840	-2.724905	-0.757096	-0.191996	-0.908885	-2.044691	-2.722720	-0.247616	-0.027999	0.415955	-2.807570	-2.764623	-0.530488	0.364424	1.565450	-0.408412	-5.037358	-3.060008	-0.788441	0.585977	0.939724	-2.522509	-6.084212	-3.132920	-1.881365	-0.172428	-0.484291	-3.207031	-7.049988	-5.702625	-8.219527	-0.324099	-5.807164
141.000000	-0.061304	-1.736066	-2.784860	-0.883715	-0.252142	-0.839051	-2.084219	-2.795016	-0.372033	-0.046758	0.293673	-2.889419	-2.826192	-0.551416	0.364652	1.156385	-0.814117	-5.123961	-3.121417	-0.753184	0.588109	0.704850	-3.041404	-5.950828	-3.203634	-1.833516	-0.112510	-0.613481	-3.177493	-6.972868	-5.637605	-8.399600	-0.410975	-5.915648
142.000000	-0.148920	-1.922717	-2.894053	-0.992420	-0.253562	-0.704738	-2.013334	-2.913521	-0.515738	-0.069014	0.098564	-2.873234	-2.937727	-0.695215	0.338798	0.379446	-1.612747	-5.191996	-3.272098	-0.836018	0.544405	0.278915	-3.196163	-5.633069	-3.372523	-1.865775	-0.085236	-0.799365	-3.113535	-6.929517	-5.569400	-8.526382	-0.359527	-5.866920
143.000000	-0.255450	-1.946997	-3.032760	-1.106580	-0.252043	-0.661452	-2.040551	-3.056204	-0.619772	-0.104709	-0.078365	-2.995215	-3.074420	-0.808198	0.322795	-0.219905	-2.766448	-5.285083	-3.445260	-0.921830	0.514851	-0.141545	-2.849735	-5.382340	-3.552775	-1.891548	-0.070752	-0.986339	-3.109229	-6.923212	-5.484431	-8.568695	-0.392157	-5.756852
144.000000	-0.424039	-1.867412	-3.124869	-1.197049	-0.267565	-0.741055	-2.104906	-3.157071	-0.656161	-0.148169	-0.299060	-3.177895	-3.168717	-0.827947	0.321335	-0.508436	-3.866547	-5.525502	-3.555975	-0.915611	0.525597	-0.491770	-2.040384	-5.296831	-3.653666	-1.854796	-0.053770	-1.172912	-3.162052	-6.942837	-5.385391	-8.522616	-0.668958	-5.650993
145.000000	-0.618173	-1.769383	-3.124560	-1.226957	-0.285789	-0.851540	-2.132969	-3.156361	-0.671236	-0.169183	-0.556978	-3.316703	-3.178844	-0.910880	0.315695	-0.633259	-4.489811	-5.994729	-3.560741	-0.937469	0.544883	-0.738042	-1.072443	-5.347673	-3.647557	-1.820503	-0.029906	-1.334744	-3.262930	-7.012064	-5.314726	-8.452114	-1.029124	-5.553897
146.000000	-0.764907	-1.683125	-3.074947	-1.223652	-0.298879	-0.934025	-2.158390	-3.091287	-0.717484	-0.166312	-0.721194	-3.372165	-3.129838	-1.126066	0.309175	-0.692467	-4.517983	-6.522172	-3.489530	-1.085988	0.542785	-0.824911	-0.363491	-5.513221	-3.569189	-1.842479	-0.010296	-1.441818	-3.481371	-7.122900	-5.316472	-8.457120	-1.262973	-5.483191
147.000000	-0.877259	-1.647590	-3.092098	-1.284346	-0.318170	-1.027223	-2.241074	-3.091231	-0.821346	-0.171826	-0.712056	-3.396606	-3.132724	-1.370012	0.317753	-0.555092	-4.124906	-6.919559	-3.460262	-1.284916	0.526079	-0.692992	-0.165718	-5.745684	-3.534167	-1.905242	0.000417	-1.474463	-3.840104	-7.211561	-5.375597	-8.525748	-1.281356	-5.435077
148.000000	-1.005529	-1.699925	-3.201149	-1.426885	-0.351166	-1.190038	-2.440692	-3.190575	-0.959428	-0.199675	-0.594271	-3.548707	-3.232907	-1.549642	0.337996	-0.124481	-3.708816	-7.170729	-3.525728	-1.426663	0.521251	-0.372227	-0.557605	-5.937510	-3.604721	-1.967616	0.013170	-1.437023	-4.257007	-7.188880	-5.415863	-8.585021	-1.133315	-5.384289
149.000000	-1.101042	-1.760427	-3.309746	-1.541731	-0.367736	-1.398323	-2.702421	-3.303299	-1.067760	-0.227913	-0.465126	-3.783597	-3.346840	-1.637541	0.354357	0.380372	-3.495866	-7.299973	-3.621093	-1.471893	0.517465	-0.068108	-1.517076	-6.088650	-3.716982	-2.008660	0.013378	-1.422672	-4.660481	-7.056497	-5.424238	-8.709550	-0.956954	-5.346287
150.000000	-1.110481	-1.707054	-3.340554	-1.580802	-0.341827	-1.538315	-2.835057	-3.359823	-1.126243	-0.241514	-0.376145	-3.888532	-3.386984	-1.640896	0.350339	0.542925	-3.286019	-7.269699	-3.675300	-1.443758	0.497111	0.000104	-2.812199	-6.263670	-3.787627	-2.011964	-0.008512	-1.534803	-4.995932	-6.886030	-5.438774	-9.002157	-0.746353	-5.347597
151.000000	-1.058745	-1.587901	-3.267716	-1.603416	-0.298447	-1.553034	-2.781199	-3.318186	-1.149724	-0.251306	-0.321259	-3.833846	-3.324756	-1.589472	0.325574	0.306362	-3.008064	-7.130094	-3.647258	-1.384384	0.474280	-0.150105	-4.033892	-6.400372	-3.766251	-1.971456	-0.027127	-1.751609	-5.223027	-6.692842	-5.418011	-9.343509	-0.418107	-5.353595
152.000000	-0.993784	-1.506765	-3.142382	-1.651430	-0.288171	-1.508843	-2.615754	-3.203862	-1.138350	-0.272900	-0.351174	-3.628547	-3.207190	-1.513229	0.294630	-0.097721	-2.689468	-7.085400	-3.548127	-1.300604	0.479545	-0.326715	-4.751114	-6.389013	-3.667507	-1.876560	-0.006459	-1.927672	-5.305349	-6.445910	-5.273424	-9.472632	-0.059040	-5.269731
153.000000	-0.967531	-1.481147	-3.034518	-1.702640	-0.333289	-1.515047	-2.433301	-3.084900	-1.090871	-0.322830	-0.551931	-3.318723	-3.097683	-1.419254	0.267152	-0.543603	-2.389649	-7.182826	-3.420717	-1.185529	0.517509	-0.430751	-4.814344	-6.238784	-3.545337	-1.717224	0.066136	-1.998824	-5.278994	-6.157246	-5.017710	-9.318903	0.216355	-5.079725
154.000000	-1.036726	-1.532073	-2.967421	-1.731341	-0.417633	-1.589624	-2.354095	-2.997897	-1.028841	-0.394294	-0.810351	-3.115976	-3.025690	-1.313180	0.255143	-0.828944	-2.344403	-7.244510	-3.301951	-1.057593	0.557108	-0.453940	-4.463367	-6.095633	-3.433033	-1.530266	0.162490	-2.030535	-5.275541	-5.923541	-4.789231	-9.079339	0.386048	-4.892626
155.000000	-1.207450	-1.652207	-2.948633	-1.741781	-0.512349	-1.638628	-2.367075	-2.964690	-0.994837	-0.441764	-0.958875	-3.123057	-3.000154	-1.207743	0.265990	-0.853250	-2.571785	-7.195233	-3.234941	-0.924935	0.576328	-0.458589	-3.982266	-6.046959	-3.357304	-1.347499	0.246359	-2.081118	-5.335912	-5.800340	-4.660583	-8.934350	0.384570	-4.762765
156.000000	-1.404126	-1.777341	-2.956319	-1.743684	-0.579450	-1.558843	-2.330554	-2.967939	-0.998490	-0.451986	-0.972655	-3.202621	-2.989609	-1.113726	0.279298	-0.770092	-2.853241	-7.126223	-3.211358	-0.777962	0.565219	-0.599685	-3.510611	-5.963937	-3.306725	-1.185664	0.300153	-2.214366	-5.406311	-5.693426	-4.568570	-8.879111	0.164364	-4.609057
157.000000	-1.515844	-1.848271	-2.955865	-1.730809	-0.595934	-1.349372	-2.185154	-2.964802	-1.004575	-0.458122	-0.963815	-3.205711	-2.961091	-1.016040	0.275521	-0.794249	-3.070861	-7.061456	-3.187702	-0.615824	0.542344	-0.884386	-3.146477	-5.762750	-3.252510	-1.054900	0.320413	-2.404839	-5.468042	-5.510224	-4.447145	-8.824017	-0.173426	-4.431039
