time	FP1	FP2	F7	F3	FZ	F4	F8	FT7	FC3	FCZ	FC4	FT8	T7	C3	CZ	C4	T8	M1	TP7	CP3	CPZ	CP4	TP8	M2	P7	P3	PZ	P4	P8	O1	OZ	O2	HEO	VEO	
-200.000000	-1.443964	-1.288135	-0.834423	-1.077994	-1.242581	-0.746739	-0.294729	-0.808960	-0.903451	-1.208863	-1.509095	0.403110	-0.827515	-0.991419	-1.273446	-1.975910	0.560517	-0.554862	-0.800365	-0.904308	-1.417542	-1.522464	-0.725929	0.554862	-0.797350	-1.003421	-1.497113	-1.292958	0.038913	-0.509537	-0.337412	-0.031055	-0.604847	1.467788
-199.000000	-1.196536	-0.795715	-0.677996	-0.831787	-0.942145	-0.645099	-0.127140	-0.646013	-0.620526	-0.934929	-1.222022	0.465043	-0.672363	-0.655536	-0.937798	-1.418911	0.479313	-0.534846	-0.611619	-0.563655	-1.107398	-1.000047	-0.839912	0.534846	-0.608912	-0.727426	-1.197019	-0.971046	-0.211662	-0.234744	-0.146780	0.187750	-0.416892	1.326478
-198.000000	-0.896272	-0.381143	-0.391003	-0.473938	-0.543530	-0.408740	0.114550	-0.353006	-0.223570	-0.532887	-0.776859	0.621229	-0.385335	-0.243032	-0.501893	-0.741391	0.722049	-0.409541	-0.314783	-0.167447	-0.698537	-0.291406	-0.428173	0.409541	-0.318925	-0.392077	-0.780267	-0.328175	-0.421686	0.111113	0.096395	0.381872	-0.408330	1.292519
-197.000000	-0.660396	-0.145647	-0.116356	-0.154592	-0.169747	-0.135251	0.345017	-0.082452	0.138796	-0.142225	-0.301975	0.847023	-0.113113	0.106530	-0.086976	-0.087868	1.239382	-0.285507	-0.076517	0.168280	-0.297261	0.431268	0.102286	0.285507	-0.071850	-0.079916	-0.378692	0.536251	-0.545762	0.402444	0.294388	0.513019	-0.552115	1.364976
-196.000000	-0.585036	-0.185448	-0.068805	0.034269	0.032189	0.054705	0.415256	-0.060541	0.324352	0.084593	0.081495	0.905971	-0.093325	0.288007	0.164386	0.459186	1.671404	-0.265464	-0.113685	0.321384	-0.061539	0.902959	0.398781	0.265464	-0.078775	0.080717	-0.172354	1.079980	-0.507214	0.493371	0.339728	0.540000	-0.658699	1.517701
-195.000000	-0.669365	-0.511664	-0.314119	0.034449	-0.002301	0.051915	0.186776	-0.336359	0.298752	0.105328	0.359946	0.605597	-0.377473	0.303160	0.199091	0.905884	1.638267	-0.271337	-0.444135	0.302032	-0.069390	0.885369	0.296462	0.271337	-0.382885	0.102257	-0.225617	0.831888	-0.353360	0.364972	0.193602	0.353473	-0.538284	1.732244
-194.000000	-0.832247	-1.007482	-0.630517	-0.136988	-0.221117	-0.208908	-0.255945	-0.651100	0.147926	-0.043485	0.437460	0.164488	-0.687485	0.251941	0.073933	1.122280	1.140436	-0.169953	-0.787243	0.212298	-0.240115	0.446268	-0.329714	0.169953	-0.720601	0.040147	-0.420039	0.117788	-0.228033	0.137724	-0.032754	0.018288	-0.258123	1.953148
-193.000000	-1.044009	-1.549381	-0.809429	-0.472541	-0.586102	-0.651235	-0.681158	-0.809287	-0.106514	-0.357452	0.159218	-0.178540	-0.818104	0.130167	-0.190365	0.778622	0.447829	-0.009603	-0.925972	0.015057	-0.521883	-0.193488	-1.418661	0.009603	-0.865596	-0.202048	-0.677676	-0.573867	-0.230856	-0.110895	-0.237692	-0.282657	0.009038	2.120014
-192.000000	-1.281533	-2.000998	-0.824654	-0.877185	-0.995682	-1.061753	-1.006772	-0.818734	-0.424350	-0.710124	-0.252902	-0.477390	-0.787036	-0.092991	-0.500388	0.101303	-0.163595	0.086606	-0.893846	-0.263304	-0.798783	-0.732961	-2.475005	-0.086606	-0.842260	-0.545993	-0.915701	-1.042855	-0.330842	-0.343998	-0.396807	-0.489475	0.337657	2.227312
-191.000000	-1.471655	-2.209652	-0.732640	-1.166366	-1.315759	-1.284308	-1.157686	-0.728151	-0.725010	-0.957246	-0.631099	-0.632334	-0.666489	-0.427278	-0.752503	-0.532170	-0.487669	0.093235	-0.772279	-0.535309	-0.972938	-1.081764	-2.902448	-0.093235	-0.740390	-0.807776	-1.069260	-1.280082	-0.462136	-0.514345	-0.501827	-0.625124	0.691171	2.294074
-190.000000	-1.587067	-2.146126	-0.634599	-1.307621	-1.525344	-1.368172	-1.044717	-0.617515	-0.986387	-1.115715	-1.072964	-0.544021	-0.554100	-0.838552	-0.944527	-1.153533	-0.551949	0.084341	-0.619065	-0.773335	-1.094590	-1.377868	-2.549151	-0.084341	-0.616936	-0.940081	-1.174582	-1.392341	-0.569772	-0.586428	-0.552710	-0.729469	0.712803	2.312558
-189.000000	-1.650420	-1.975611	-0.591948	-1.383270	-1.663653	-1.473260	-0.852381	-0.551470	-1.206596	-1.234480	-1.476074	-0.437242	-0.514982	-1.185556	-1.070392	-1.644568	-0.611483	0.148471	-0.498547	-0.946887	-1.182375	-1.570422	-1.769989	-0.148471	-0.517075	-0.966110	-1.253738	-1.413261	-0.577736	-0.604795	-0.582036	-0.862986	0.408386	2.292596
-188.000000	-1.715220	-1.919300	-0.619510	-1.484604	-1.799696	-1.693549	-0.895391	-0.580452	-1.408824	-1.378500	-1.740882	-0.557051	-0.566653	-1.422560	-1.200201	-1.922079	-0.843206	0.268308	-0.491614	-1.099201	-1.290963	-1.652081	-1.085053	-0.268308	-0.504229	-1.007413	-1.360456	-1.416199	-0.559351	-0.688081	-0.681803	-1.066359	0.226060	2.244415
-187.000000	-1.781936	-1.926957	-0.695705	-1.594200	-1.908818	-1.969135	-1.141885	-0.685740	-1.556705	-1.535445	-1.872617	-0.859088	-0.672170	-1.543801	-1.366740	-2.090766	-1.132705	0.403148	-0.602462	-1.228984	-1.443560	-1.736779	-0.625342	-0.403147	-0.586121	-1.105909	-1.487967	-1.473083	-0.670874	-0.824957	-0.856697	-1.273254	0.422802	2.164831
-186.000000	-1.825201	-1.852226	-0.790774	-1.638250	-1.894920	-2.149644	-1.385437	-0.796247	-1.582214	-1.596495	-1.829586	-1.168644	-0.780000	-1.472792	-1.466821	-2.153275	-1.271004	0.565876	-0.742403	-1.239540	-1.535952	-1.795470	-0.093911	-0.565876	-0.706976	-1.156727	-1.541833	-1.533299	-0.884391	-0.917207	-1.012767	-1.398254	0.827787	2.063033
-185.000000	-1.784980	-1.702973	-0.803962	-1.511760	-1.695274	-2.062266	-1.504563	-0.809323	-1.392289	-1.466359	-1.634984	-1.307863	-0.797901	-1.104746	-1.388584	-2.079556	-1.269177	0.688703	-0.777567	-1.031859	-1.460417	-1.705540	0.631763	-0.688703	-0.760070	-1.061666	-1.457526	-1.486450	-0.987551	-0.928504	-1.077243	-1.421443	1.008476	1.823109
-184.000000	-1.568154	-1.499159	-0.612058	-1.145652	-1.314072	-1.670401	-1.427634	-0.617508	-0.997265	-1.157771	-1.419428	-1.155459	-0.629528	-0.548636	-1.140921	-1.881870	-1.284556	0.669782	-0.611750	-0.663038	-1.232119	-1.484296	1.148473	-0.669782	-0.631499	-0.843232	-1.253342	-1.336990	-0.900486	-0.869186	-1.047180	-1.394817	0.704467	1.385470
-183.000000	-1.215064	-1.314899	-0.340848	-0.748500	-0.893973	-1.179964	-1.302739	-0.341208	-0.664101	-0.815963	-1.164919	-0.951478	-0.390304	-0.196791	-0.861125	-1.470937	-1.277190	0.585014	-0.358551	-0.370918	-0.976001	-1.231385	1.052530	-0.585014	-0.395465	-0.635417	-1.024343	-1.171595	-0.750966	-0.745301	-0.945965	-1.339823	0.255575	0.994652
-182.000000	-0.827921	-1.196393	-0.143310	-0.496509	-0.517983	-0.779059	-1.251938	-0.143894	-0.502564	-0.494408	-0.674335	-0.991263	-0.206674	-0.149898	-0.569222	-0.651612	-1.128703	0.555032	-0.149312	-0.220569	-0.702146	-0.823366	0.521695	-0.555032	-0.171207	-0.450305	-0.770840	-0.895659	-0.575471	-0.509801	-0.730547	-1.141737	0.147930	0.830274
-181.000000	-0.512584	-1.136615	-0.013422	-0.350978	-0.231780	-0.555792	-1.178161	-0.026463	-0.423447	-0.247414	-0.147458	-1.134775	-0.070936	-0.258496	-0.313960	0.273181	-0.844112	0.515774	-0.000699	-0.175685	-0.468659	-0.309272	-0.053531	-0.515774	-0.001362	-0.301840	-0.526513	-0.539172	-0.395019	-0.234171	-0.455232	-0.806268	0.288641	0.770560
-180.000000	-0.392728	-1.285894	0.011048	-0.321628	-0.185031	-0.581007	-1.114960	-0.009762	-0.466652	-0.244374	-0.065621	-1.179154	-0.031535	-0.497025	-0.311214	0.593555	-0.508793	0.425557	0.020891	-0.321432	-0.484512	-0.114217	-0.440402	-0.425557	0.022196	-0.358866	-0.468813	-0.394536	-0.322529	-0.135078	-0.317588	-0.547284	0.470776	0.738983
-179.000000	-0.463633	-1.622420	-0.051673	-0.403810	-0.339215	-0.706094	-1.108487	-0.069949	-0.603642	-0.431863	-0.351851	-1.104273	-0.079828	-0.688999	-0.515680	0.292628	-0.391920	0.350612	-0.060282	-0.526091	-0.678335	-0.269621	-0.606060	-0.350612	-0.075908	-0.556178	-0.565504	-0.489417	-0.396460	-0.218080	-0.351007	-0.481850	0.748911	0.799185
-178.000000	-0.590005	-1.845170	-0.125869	-0.517806	-0.505045	-0.693291	-1.050287	-0.139804	-0.706315	-0.593763	-0.600648	-0.899978	-0.140107	-0.643783	-0.691864	-0.068637	-0.602813	0.296356	-0.147131	-0.555861	-0.797481	-0.404737	-0.699549	-0.296356	-0.174392	-0.657176	-0.630486	-0.618901	-0.591102	-0.305882	-0.440723	-0.578789	1.000559	0.965457
-177.000000	-0.648664	-1.821346	-0.176463	-0.572589	-0.572195	-0.518640	-0.901767	-0.188759	-0.690505	-0.610405	-0.595096	-0.666277	-0.182831	-0.398928	-0.700879	-0.069281	-0.914077	0.203027	-0.203867	-0.407223	-0.738392	-0.243906	-0.705148	-0.203027	-0.214951	-0.594478	-0.570356	-0.582909	-0.752216	-0.296169	-0.492889	-0.736623	0.993119	1.175901
-176.000000	-0.596493	-1.592519	-0.157677	-0.526376	-0.520998	-0.318626	-0.701783	-0.171527	-0.500968	-0.498437	-0.328203	-0.639564	-0.175300	-0.018478	-0.524392	0.327069	-1.193702	0.076660	-0.176357	-0.163072	-0.529054	0.169954	-0.497017	-0.076660	-0.163584	-0.397763	-0.372414	-0.305463	-0.704999	-0.161518	-0.417380	-0.800181	0.835691	1.321223
-175.000000	-0.482092	-1.230850	-0.083456	-0.466821	-0.499071	-0.252202	-0.569636	-0.102307	-0.299175	-0.434721	-0.099327	-0.841189	-0.118030	0.274812	-0.376258	0.587878	-1.372504	0.005441	-0.077754	0.007245	-0.371599	0.321037	-0.288860	-0.005441	-0.061733	-0.212136	-0.203978	-0.087367	-0.565177	0.002538	-0.267910	-0.782335	0.872819	1.281807
-174.000000	-0.342379	-0.800514	0.075110	-0.394480	-0.607686	-0.315761	-0.526556	0.050257	-0.278678	-0.523421	-0.173801	-0.916557	0.030403	0.173624	-0.434983	0.219329	-1.269998	0.026797	0.093883	-0.016815	-0.406537	-0.080135	-0.461459	-0.026797	0.086809	-0.142383	-0.209960	-0.173986	-0.499830	0.097405	-0.177510	-0.808310	1.083151	0.951491
-173.000000	-0.165880	-0.359433	0.389115	-0.220544	-0.729781	-0.402347	-0.438456	0.355486	-0.343920	-0.649968	-0.422536	-0.720848	0.332553	-0.188632	-0.579423	-0.441414	-0.957184	0.175356	0.406962	-0.097597	-0.504008	-0.638086	-1.136748	-0.175356	0.365702	-0.059961	-0.278041	-0.410609	-0.531724	0.162355	-0.139069	-0.872684	1.224610	0.399250
-172.000000	-0.001678	-0.015043	0.762981	-0.051094	-0.779980	-0.484259	-0.378244	0.717992	-0.388420	-0.699803	-0.594043	-0.599880	0.696898	-0.463287	-0.644218	-0.706448	-0.762455	0.431762	0.787040	-0.100350	-0.534484	-0.925528	-2.052972	-0.431762	0.732352	0.104232	-0.281430	-0.593552	-0.626862	0.231972	-0.103876	-0.915448	1.335760	-0.112823
-171.000000	0.050067	0.128725	0.997605	-0.070900	-0.813957	-0.557560	-0.452845	0.938024	-0.473964	-0.716880	-0.643219	-0.702726	0.919093	-0.625857	-0.656362	-0.541824	-0.729996	0.632607	1.033584	-0.103604	-0.532954	-0.920015	-2.694248	-0.632607	0.983370	0.223379	-0.254014	-0.656339	-0.692672	0.268944	-0.074912	-0.915072	1.484517	-0.380802
-170.000000	-0.023567	0.042727	1.005174	-0.233065	-0.861281	-0.655941	-0.612234	0.926395	-0.581437	-0.753283	-0.688292	-0.871385	0.909862	-0.732040	-0.689602	-0.384458	-0.668616	0.676328	1.046099	-0.174068	-0.546062	-0.835360	-2.706622	-0.676328	0.986963	0.226799	-0.242985	-0.648998	-0.678657	0.244943	-0.060228	-0.868398	1.604160	-0.377938
-169.000000	-0.066659	-0.137871	0.911931	-0.275727	-0.848491	-0.769515	-0.754843	0.828294	-0.533333	-0.728621	-0.790879	-0.973298	0.826840	-0.649707	-0.682735	-0.448148	-0.616613	0.615139	0.953787	-0.184904	-0.523809	-0.828341	-2.167128	-0.615139	0.885564	0.217527	-0.206280	-0.640622	-0.609562	0.218208	-0.021683	-0.733796	1.616257	-0.237038
-168.000000	0.059180	-0.246398	0.851837	-0.100145	-0.707226	-0.746359	-0.744762	0.779252	-0.277668	-0.585204	-0.879158	-0.922409	0.801692	-0.292828	-0.569252	-0.743836	-0.676605	0.603568	0.883689	-0.016278	-0.426996	-0.897106	-1.354975	-0.603568	0.834054	0.291389	-0.121102	-0.634337	-0.568769	0.257840	0.074633	-0.527050	1.538394	-0.161211
-167.000000	0.279442	-0.292972	0.798049	0.113501	-0.488756	-0.592287	-0.603362	0.733177	0.004497	-0.412211	-0.914331	-0.753627	0.775448	0.172191	-0.394529	-1.194585	-0.639683	0.743719	0.812148	0.238607	-0.306025	-0.969022	-0.564912	-0.743719	0.791217	0.394122	-0.034828	-0.620308	-0.624095	0.341705	0.183260	-0.363368	1.437491	-0.259310
-166.000000	0.456199	-0.317256	0.777956	0.241883	-0.319583	-0.501675	-0.471012	0.721465	0.140025	-0.314374	-0.976725	-0.530807	0.767033	0.421677	-0.251048	-1.660161	-0.379235	0.980797	0.784141	0.385252	-0.222788	-0.976561	-0.155452	-0.980797	0.779217	0.434422	0.010369	-0.587904	-0.709906	0.412274	0.243745	-0.295941	1.334225	-0.426923
-165.000000	0.594949	-0.232354	0.803824	0.299134	-0.253293	-0.513432	-0.386104	0.769868	0.083781	-0.320941	-1.037945	-0.361936	0.791992	0.280988	-0.202701	-1.965901	-0.109919	1.197508	0.818505	0.318425	-0.210562	-0.939927	-0.316809	-1.197508	0.814739	0.380740	-0.003802	-0.541563	-0.741732	0.444985	0.245483	-0.290837	1.309126	-0.649757
-164.000000	0.786019	-0.001917	0.794155	0.301368	-0.241393	-0.518095	-0.399925	0.786291	-0.070517	-0.377752	-0.884975	-0.399392	0.770228	-0.059159	-0.220617	-1.858012	0.036693	1.283325	0.825857	0.119557	-0.267667	-0.918675	-0.900164	-1.283325	0.814895	0.258213	-0.066336	-0.537379	-0.748355	0.430542	0.207982	-0.312494	1.377856	-1.070867
-163.000000	0.939922	0.174460	0.718514	0.215262	-0.311657	-0.573085	-0.650877	0.730981	-0.227890	-0.471878	-0.575593	-0.712353	0.676603	-0.327494	-0.314117	-1.378755	0.001290	1.220439	0.740548	-0.107136	-0.430288	-0.985505	-1.691444	-1.220439	0.735730	0.069074	-0.207462	-0.669570	-0.854262	0.308103	0.083013	-0.415120	1.429452	-1.510702
-162.000000	0.869825	0.179831	0.510046	-0.010203	-0.559866	-0.809678	-0.989119	0.533432	-0.428914	-0.706333	-0.578733	-1.125490	0.453807	-0.491973	-0.573813	-1.036342	-0.306077	1.039883	0.489374	-0.379838	-0.765017	-1.240469	-2.520042	-1.039883	0.504847	-0.229676	-0.503420	-0.994426	-1.129321	0.015529	-0.187992	-0.647026	1.398583	-1.631949
-161.000000	0.610433	0.110133	0.170098	-0.320267	-0.909408	-1.073759	-1.116769	0.183516	-0.673627	-1.040305	-1.012761	-1.317751	0.114271	-0.602304	-0.944937	-1.109947	-0.790473	0.742955	0.110428	-0.649984	-1.170459	-1.602152	-3.142339	-0.742955	0.139557	-0.555079	-0.869425	-1.387050	-1.437180	-0.337653	-0.485335	-0.879867	1.280560	-1.427042
-160.000000	0.297821	-0.031275	-0.143748	-0.625641	-1.218012	-1.179884	-1.092628	-0.151362	-0.904073	-1.319924	-1.468288	-1.281788	-0.190507	-0.705822	-1.281420	-1.351317	-1.243202	0.418313	-0.231775	-0.856910	-1.485855	-1.885895	-3.340549	-0.418314	-0.190973	-0.785206	-1.153826	-1.671185	-1.633256	-0.586099	-0.670308	-0.980863	1.106044	-1.164605
-159.000000	0.028212	-0.203112	-0.315106	-0.878755	-1.478766	-1.212289	-1.081247	-0.333166	-1.122285	-1.529172	-1.705809	-1.269437	-0.356828	-0.919731	-1.540727	-1.502155	-1.506211	0.200429	-0.430306	-1.076985	-1.694357	-2.031360	-3.025953	-0.200429	-0.374796	-0.956250	-1.345026	-1.827626	-1.702002	-0.707082	-0.748700	-0.962992	0.943265	-1.093474
-158.000000	-0.154929	-0.281249	-0.393338	-1.049004	-1.726380	-1.338707	-1.118317	-0.402925	-1.329067	-1.711402	-1.798799	-1.408676	-0.423032	-1.276858	-1.742603	-1.490638	-1.639842	0.119112	-0.505777	-1.358856	-1.825011	-2.017141	-2.284942	-0.119112	-0.447752	-1.140637	-1.476579	-1.875904	-1.612905	-0.749071	-0.742242	-0.860485	0.883174	-1.237950
-157.000000	-0.236345	-0.264694	-0.472429	-1.104462	-1.890327	-1.550868	-1.191399	-0.460136	-1.430977	-1.814764	-1.824656	-1.605494	-0.480228	-1.533601	-1.850990	-1.359811	-1.810196	0.066489	-0.542873	-1.568296	-1.857269	-1.853974	-1.441410	-0.066489	-0.503212	-1.288288	-1.531033	-1.814338	-1.395967	-0.750595	-0.671639	-0.707841	0.938627	-1.479763
-156.000000	-0.226980	-0.215011	-0.591056	-1.049737	-1.898315	-1.671257	-1.262146	-0.562311	-1.373825	-1.793647	-1.779316	-1.753199	-0.588378	-1.476486	-1.853662	-1.278845	-2.061862	-0.061013	-0.622276	-1.564648	-1.809934	-1.721475	-0.888299	0.061013	-0.607570	-1.339254	-1.518941	-1.737223	-1.206234	-0.737429	-0.604869	-0.576113	0.911886	-1.711035
-155.000000	-0.167752	-0.109701	-0.706981	-0.927005	-1.756702	-1.573880	-1.198800	-0.682523	-1.222558	-1.659980	-1.660315	-1.746472	-0.704060	-1.212534	-1.768713	-1.335551	-2.417250	-0.132861	-0.727660	-1.377786	-1.701852	-1.727878	-0.680576	0.132862	-0.721222	-1.280287	-1.445400	-1.689513	-1.078840	-0.665111	-0.516545	-0.446644	0.614020	-1.916558
-154.000000	-0.007963	0.075008	-0.710843	-0.739416	-1.498772	-1.290697	-0.940026	-0.703833	-1.051163	-1.443722	-1.571051	-1.548246	-0.702108	-0.978959	-1.613046	-1.607582	-2.847063	-0.058062	-0.733627	-1.147629	-1.541924	-1.790610	-0.576321	0.058062	-0.734487	-1.121685	-1.296686	-1.612514	-0.911434	-0.490254	-0.331692	-0.243218	0.110446	-2.168534
-153.000000	0.346040	0.294065	-0.520614	-0.455898	-1.139377	-0.901280	-0.612389	-0.527691	-0.835810	-1.161813	-1.521432	-1.299347	-0.507362	-0.861037	-1.411392	-2.034766	-3.228711	0.040543	-0.551993	-0.969035	-1.358727	-1.818000	-0.393675	-0.040543	-0.575963	-0.912509	-1.099459	-1.481041	-0.664379	-0.250073	-0.076867	0.010188	-0.299414	-2.463855
-152.000000	0.880919	0.538952	-0.178536	-0.088869	-0.704540	-0.495989	-0.295576	-0.183708	-0.515920	-0.807259	-1.342070	-1.057870	-0.167092	-0.730889	-1.150527	-2.167408	-3.305713	0.127655	-0.238507	-0.816821	-1.148539	-1.741923	-0.175102	-0.127655	-0.271121	-0.695384	-0.892180	-1.316142	-0.437296	-0.022581	0.153631	0.201996	-0.316531	-2.719264
-151.000000	1.437482	0.778267	0.179862	0.259378	-0.293718	-0.177247	-0.090732	0.184927	-0.164081	-0.440373	-0.997041	-0.862780	0.186790	-0.498982	-0.856494	-1.765295	-2.884052	0.229002	0.090145	-0.638354	-0.939860	-1.580023	-0.165388	-0.229002	0.055863	-0.491515	-0.728392	-1.176621	-0.382420	0.131999	0.269169	0.271410	0.060252	-2.913751
-150.000000	1.882676	0.964031	0.508970	0.531940	0.044932	0.043247	-0.051908	0.522821	0.108203	-0.132033	-0.582508	-0.783994	0.507144	-0.261395	-0.581583	-1.043325	-2.173520	0.337515	0.397997	-0.456198	-0.759111	-1.371434	-0.460412	-0.337515	0.343742	-0.319380	-0.618568	-1.071401	-0.484887	0.244788	0.298789	0.277510	0.647704	-3.096851
-149.000000	2.150191	1.113718	0.718580	0.718959	0.278372	0.167050	-0.091940	0.735363	0.246278	0.059307	-0.204985	-0.785042	0.705902	-0.166878	-0.397275	-0.290360	-1.435021	0.445636	0.582559	-0.391661	-0.651389	-1.130690	-0.894320	-0.445636	0.511101	-0.259075	-0.574523	-0.971071	-0.591719	0.290341	0.272485	0.237943	1.214944	-3.275319
-148.000000	2.227818	1.264400	0.694557	0.792884	0.373721	0.215945	-0.109465	0.688827	0.255786	0.116477	0.024510	-0.749014	0.673024	-0.226946	-0.360828	0.206975	-0.701819	0.488640	0.526109	-0.481394	-0.656953	-0.925964	-1.195874	-0.488640	0.448748	-0.360769	-0.620716	-0.871253	-0.567332	0.207505	0.164696	0.139503	1.549531	-3.427950
-147.000000	2.217111	1.451306	0.559842	0.772586	0.363637	0.240761	-0.014171	0.515641	0.188443	0.077377	0.002752	-0.556803	0.526376	-0.340155	-0.440322	0.136972	-0.033448	0.402431	0.348701	-0.633977	-0.744643	-0.868850	-1.161521	-0.402431	0.255458	-0.558819	-0.730685	-0.808908	-0.404141	0.052054	0.029949	0.040337	1.666492	-3.523516
-146.000000	2.197523	1.665295	0.451351	0.701778	0.277646	0.245721	0.171257	0.385807	0.099777	-0.030911	-0.270725	-0.237574	0.400151	-0.409607	-0.577299	-0.519945	0.358493	0.213728	0.197534	-0.769806	-0.880440	-0.966877	-0.817012	-0.213728	0.089139	-0.774671	-0.865332	-0.801432	-0.209483	-0.125441	-0.092541	-0.034870	1.698355	-3.486712
-145.000000	2.193162	1.818136	0.335850	0.630903	0.187858	0.258017	0.344846	0.273906	0.062041	-0.126178	-0.567256	0.058778	0.270385	-0.327458	-0.681924	-1.253939	0.391251	0.007339	0.039495	-0.791769	-0.983753	-1.030944	-0.394113	-0.007339	-0.047347	-0.929011	-0.958968	-0.773910	-0.098706	-0.312906	-0.232930	-0.116653	1.650519	-3.282010
-144.000000	2.248210	1.892600	0.170372	0.586510	0.176658	0.332029	0.469300	0.127167	0.104922	-0.112665	-0.615735	0.255353	0.104118	-0.082698	-0.649304	-1.492066	0.277548	-0.111769	-0.158932	-0.638291	-0.949404	-0.887973	-0.170850	0.111769	-0.198202	-0.915480	-0.930146	-0.611359	-0.161033	-0.448638	-0.353843	-0.198279	1.493084	-2.951810
-143.000000	2.364738	1.936153	0.007417	0.513300	0.209978	0.463767	0.550195	-0.022329	0.134751	-0.022626	-0.445039	0.332732	-0.053129	0.103153	-0.511145	-1.221458	0.120465	-0.122955	-0.329693	-0.429094	-0.793899	-0.560649	-0.253659	0.122955	-0.328255	-0.738886	-0.760650	-0.190053	-0.291317	-0.459878	-0.356283	-0.189640	1.322279	-2.619435
-142.000000	2.453182	1.937156	-0.066651	0.370913	0.186278	0.558989	0.602440	-0.079576	0.020666	0.002739	-0.322286	0.335105	-0.110738	-0.039341	-0.432803	-0.931716	-0.150763	-0.090736	-0.371470	-0.450768	-0.685450	-0.255830	-0.371346	0.090736	-0.362119	-0.678051	-0.590930	0.294955	-0.248977	-0.430883	-0.323818	-0.122011	1.170243	-2.447076
-141.000000	2.537211	1.967058	0.046051	0.314298	0.150908	0.633350	0.731136	0.065773	-0.138844	-0.021138	-0.243606	0.455758	0.031188	-0.431278	-0.433733	-0.786645	-0.280617	-0.041237	-0.206013	-0.758903	-0.691816	-0.165909	-0.050593	0.041237	-0.229412	-0.887441	-0.552377	0.380276	0.077337	-0.493026	-0.407036	-0.137164	0.968105	-2.490672
-140.000000	2.636232	2.016334	0.288143	0.413992	0.171717	0.728702	0.884941	0.321929	-0.203783	0.000760	-0.053664	0.629107	0.288135	-0.766315	-0.425429	-0.503254	-0.075649	0.025191	0.056180	-1.086512	-0.731560	-0.250900	0.608105	-0.025191	-0.004079	-1.152041	-0.618199	0.053871	0.529516	-0.613665	-0.575987	-0.243201	0.785394	-2.670481
-139.000000	2.565267	1.909282	0.380535	0.428801	0.125012	0.709281	0.838192	0.415405	-0.308490	-0.033480	0.089323	0.535156	0.377832	-1.009873	-0.461845	-0.145707	0.125839	0.122086	0.159422	-1.330686	-0.817881	-0.367848	1.033523	-0.122086	0.083516	-1.363326	-0.757758	-0.307873	0.814912	-0.739605	-0.758102	-0.390825	0.694740	-2.909479
-138.000000	2.297403	1.697228	0.231594	0.279348	-0.008107	0.594933	0.666416	0.273182	-0.499659	-0.152200	0.056630	0.272010	0.218296	-1.225344	-0.560528	-0.016270	0.217358	0.199148	0.033779	-1.495324	-0.941607	-0.438162	1.053489	-0.199148	-0.041621	-1.517456	-0.909954	-0.493526	0.886805	-0.843790	-0.875878	-0.492830	0.566920	-3.164602
-137.000000	1.991372	1.544001	-0.037933	0.112714	-0.121926	0.507547	0.588630	-0.009546	-0.665665	-0.261822	-0.087255	0.168951	-0.063596	-1.363261	-0.657462	-0.166215	0.274828	0.158775	-0.219327	-1.551650	-1.034242	-0.501574	0.891514	-0.158775	-0.280151	-1.594103	-1.017919	-0.567378	0.836253	-0.929351	-0.920418	-0.518079	0.202260	-3.353131
-136.000000	1.765297	1.488867	-0.323771	-0.013945	-0.191159	0.429612	0.606337	-0.324647	-0.789465	-0.334183	-0.254437	0.181200	-0.358720	-1.442539	-0.717321	-0.412349	0.042505	0.030878	-0.503431	-1.560743	-1.084792	-0.604574	0.878736	-0.030878	-0.536540	-1.646479	-1.099859	-0.633869	0.695751	-1.033599	-0.966337	-0.526187	-0.253409	-3.430892
-135.000000	1.691043	1.525020	-0.554483	-0.093403	-0.164530	0.416958	0.591986	-0.579156	-0.866493	-0.334140	-0.260851	0.069763	-0.597134	-1.490252	-0.699368	-0.478692	-0.417441	-0.112913	-0.743181	-1.536018	-1.065989	-0.659913	1.317117	0.112913	-0.750033	-1.654668	-1.122593	-0.632248	0.621506	-1.100187	-0.957132	-0.431017	-0.441614	-3.447684
-134.000000	1.755245	1.664962	-0.699292	-0.103389	-0.029217	0.509694	0.580075	-0.736697	-0.856687	-0.277893	-0.155981	-0.064010	-0.742221	-1.471534	-0.632528	-0.408963	-0.645164	-0.312730	-0.903488	-1.452702	-0.991545	-0.664772	2.069642	0.312730	-0.903280	-1.590744	-1.059407	-0.530617	0.728970	-1.097128	-0.840935	-0.165376	-0.362270	-3.475676
-133.000000	1.874923	1.903507	-0.765719	-0.050155	0.117910	0.580656	0.720199	-0.802540	-0.772412	-0.238176	-0.229990	0.024721	-0.804192	-1.388786	-0.589270	-0.533859	-0.579005	-0.614037	-1.007517	-1.367543	-0.928358	-0.725986	2.568607	0.614037	-1.018019	-1.528859	-0.976213	-0.428679	0.884416	-1.091852	-0.725162	0.115749	-0.136794	-3.580010
-132.000000	1.939180	2.122934	-0.845372	-0.003358	0.191597	0.540140	0.935406	-0.880248	-0.687304	-0.243914	-0.464830	0.282463	-0.888103	-1.279756	-0.588168	-0.861687	-0.455466	-0.935911	-1.126666	-1.318745	-0.903410	-0.827336	2.481919	0.935910	-1.157835	-1.527028	-0.934044	-0.387661	0.952273	-1.129594	-0.704711	0.249287	0.141613	-3.776292
-131.000000	1.896068	2.236366	-1.008798	0.002390	0.197467	0.443124	1.060004	-1.049160	-0.592553	-0.261403	-0.603257	0.522090	-1.055965	-1.090915	-0.574812	-1.048061	-0.274790	-1.180199	-1.298102	-1.243021	-0.879949	-0.854370	1.898138	1.180199	-1.340484	-1.546275	-0.919012	-0.367108	0.914688	-1.198346	-0.769618	0.225958	0.234579	-4.000130
-130.000000	1.834474	2.245564	-1.184855	-0.019514	0.202413	0.361262	1.006187	-1.225557	-0.473833	-0.229698	-0.482185	0.568238	-1.218182	-0.813923	-0.462233	-0.736208	-0.000125	-1.317623	-1.454990	-1.100351	-0.786313	-0.676819	1.132459	1.317622	-1.491258	-1.524561	-0.871320	-0.262952	0.822457	-1.236960	-0.845052	0.145287	0.161780	-4.162103
-129.000000	1.894685	2.220881	-1.224431	-0.016346	0.298564	0.391936	0.788015	-1.254946	-0.361772	-0.079403	-0.045358	0.392364	-1.241258	-0.569221	-0.195406	0.164607	0.280290	-1.294012	-1.466443	-0.909212	-0.552603	-0.212621	0.620991	1.294012	-1.503154	-1.401277	-0.693102	0.008521	0.799842	-1.154227	-0.816633	0.140007	0.246039	-4.217171
-128.000000	2.078970	2.263710	-1.055239	0.082805	0.504385	0.604470	0.544721	-1.068961	-0.220613	0.194731	0.571985	0.163302	-1.059222	-0.438231	0.172271	1.275068	0.491503	-1.061670	-1.269983	-0.728839	-0.193429	0.427878	0.543458	1.061670	-1.315574	-1.173803	-0.377385	0.396505	0.886737	-0.935903	-0.640738	0.248325	0.517869	-4.190363
-127.000000	2.225571	2.341308	-0.765246	0.218846	0.685258	0.877798	0.444687	-0.754762	-0.058936	0.449617	1.014265	0.091630	-0.753854	-0.412623	0.471026	1.894832	0.623897	-0.702109	-0.943569	-0.627197	0.129681	0.952920	0.779491	0.702109	-0.996452	-0.938399	-0.077854	0.735843	0.987305	-0.701040	-0.435909	0.365898	0.716649	-4.123333
-126.000000	2.207994	2.358043	-0.489558	0.311560	0.745893	1.060867	0.582813	-0.465008	0.100340	0.577715	1.109319	0.249643	-0.489075	-0.370256	0.621210	1.748140	0.743713	-0.400049	-0.629697	-0.549022	0.320057	1.197336	1.277143	0.400049	-0.685986	-0.735158	0.125840	0.960822	1.070150	-0.537159	-0.303083	0.430892	0.668932	-4.060818
-125.000000	2.005997	2.297770	-0.392632	0.327944	0.685418	1.128906	0.892898	-0.371277	0.259251	0.571976	0.991695	0.513623	-0.420500	-0.238685	0.648749	1.250493	0.797609	-0.307709	-0.498866	-0.450311	0.397836	1.182125	2.041597	0.307709	-0.544750	-0.581498	0.230056	1.079388	1.147453	-0.489457	-0.280677	0.402504	0.316790	-4.050756
-124.000000	1.715618	2.213474	-0.531853	0.238812	0.525606	1.124766	1.221556	-0.508446	0.370891	0.455358	0.789379	0.809846	-0.562550	-0.091461	0.564816	0.715177	0.725533	-0.360205	-0.602135	-0.392659	0.367629	0.946036	2.892564	0.360205	-0.626533	-0.534310	0.207307	1.036923	1.119119	-0.609461	-0.411300	0.190414	-0.180118	-4.058323
-123.000000	1.541226	2.157578	-0.699565	0.103369	0.357848	1.107346	1.429453	-0.673352	0.403356	0.333411	0.656621	1.082776	-0.714457	0.000219	0.457286	0.255533	0.751469	-0.369374	-0.756682	-0.380729	0.294027	0.665952	3.484443	0.369374	-0.764432	-0.563226	0.127216	0.884225	0.929982	-0.818105	-0.629093	-0.160007	-0.510961	-4.056654
-122.000000	1.584558	2.186506	-0.711448	0.008686	0.294625	1.163718	1.551771	-0.694481	0.340007	0.303519	0.708205	1.315091	-0.716182	-0.000052	0.431578	0.068891	1.113720	-0.341136	-0.791572	-0.368031	0.277055	0.564427	3.575545	0.341137	-0.798723	-0.573019	0.101928	0.782170	0.722030	-0.981053	-0.806863	-0.484181	-0.689930	-4.088992
-121.000000	1.768849	2.329959	-0.606287	-0.020872	0.339385	1.246778	1.661426	-0.598718	0.204832	0.346742	0.773630	1.541349	-0.609064	-0.064680	0.475705	0.160661	1.671823	-0.415213	-0.732255	-0.336720	0.326109	0.664453	3.089960	0.415213	-0.749556	-0.522243	0.152000	0.788906	0.607979	-1.043213	-0.866213	-0.657433	-0.936891	-4.106619
-120.000000	1.965956	2.497537	-0.500849	0.032772	0.439428	1.228717	1.657058	-0.491118	0.116006	0.429612	0.750567	1.609435	-0.501773	-0.101593	0.563573	0.453942	1.987721	-0.574010	-0.667791	-0.249786	0.416761	0.917943	2.088784	0.574010	-0.688576	-0.388628	0.254819	0.865335	0.512142	-0.991931	-0.801511	-0.683149	-1.098622	-4.028427
-119.000000	2.029091	2.539632	-0.488125	0.126366	0.553599	1.132483	1.499622	-0.482646	0.116737	0.518348	0.761671	1.406158	-0.500062	-0.085444	0.672311	0.881823	1.861392	-0.695671	-0.680730	-0.113890	0.520686	1.271953	0.907584	0.695671	-0.689739	-0.186988	0.367137	0.974851	0.341273	-0.859862	-0.673441	-0.646952	-0.952918	-3.891428
-118.000000	1.888564	2.380457	-0.574165	0.187094	0.659225	1.051955	1.281449	-0.593668	0.167037	0.569348	0.811131	1.093671	-0.608647	-0.009855	0.741173	1.181380	1.595819	-0.753690	-0.780426	-0.030204	0.574719	1.525193	-0.020111	0.753690	-0.768375	-0.090548	0.425347	1.041295	0.109660	-0.728132	-0.547074	-0.575856	-0.658758	-3.787501
-117.000000	1.712974	2.168478	-0.597509	0.307633	0.838103	1.087458	1.166668	-0.631533	0.339655	0.670772	0.864043	0.996980	-0.633950	0.253594	0.816532	1.152596	1.659546	-0.741644	-0.780641	0.068541	0.620760	1.540834	-0.510566	0.741644	-0.754531	-0.135878	0.477727	1.043452	-0.078934	-0.586833	-0.394771	-0.425435	-0.443550	-3.769549
-116.000000	1.648706	2.119948	-0.465390	0.538019	1.120445	1.240392	1.237629	-0.486056	0.630612	0.889107	1.010160	1.241992	-0.485220	0.678765	0.993312	0.993963	2.148840	-0.632766	-0.590767	0.311116	0.763849	1.485602	-0.713677	0.632766	-0.565345	-0.109549	0.617569	1.075339	-0.187596	-0.380760	-0.187367	-0.244994	-0.379975	-3.773608
-115.000000	1.673860	2.319635	-0.194122	0.833261	1.489779	1.537838	1.505332	-0.199082	0.948816	1.224266	1.358366	1.715193	-0.202851	1.036708	1.302020	1.071834	2.814211	-0.447891	-0.271142	0.606900	1.033981	1.590461	-0.867565	0.447891	-0.248041	0.083781	0.864531	1.202386	-0.213739	-0.112189	0.046465	-0.100868	-0.541744	-3.699160
-114.000000	1.789883	2.731937	0.240578	1.219886	1.970702	2.049478	1.994781	0.239983	1.332786	1.698321	1.915666	2.264554	0.233875	1.256475	1.728362	1.502965	3.443746	-0.176871	0.180337	0.875381	1.418703	1.913517	-1.042241	0.176870	0.204707	0.405216	1.221094	1.445470	-0.057807	0.242565	0.347584	0.125859	-0.854948	-3.557213
-113.000000	1.932150	3.100920	0.668045	1.567572	2.371203	2.522996	2.442929	0.666595	1.691428	2.122591	2.437615	2.597209	0.665213	1.349097	2.087066	2.033200	3.726664	0.142762	0.605139	1.058505	1.764329	2.261306	-1.296575	-0.142762	0.623360	0.725227	1.563316	1.682117	0.229673	0.576931	0.647739	0.437496	-1.019744	-3.413874
-112.000000	1.992473	3.177344	0.857882	1.683703	2.463454	2.695819	2.561653	0.843049	1.816112	2.253105	2.613413	2.594836	0.857888	1.301946	2.170949	2.272863	3.416906	0.309358	0.777995	1.084101	1.879129	2.365403	-1.690610	-0.309358	0.787196	0.895203	1.709272	1.715041	0.456042	0.725370	0.793634	0.651323	-1.048177	-3.295963
-111.000000	1.978555	2.966068	0.796356	1.589583	2.285805	2.643941	2.476175	0.764315	1.683138	2.113622	2.418758	2.495427	0.792079	1.147412	2.010126	2.075817	2.765028	0.210110	0.702449	0.996954	1.774361	2.178494	-2.059735	-0.210110	0.703141	0.900336	1.658469	1.521590	0.553553	0.732363	0.805622	0.728632	-1.130724	-3.214500
-110.000000	1.898802	2.573673	0.564977	1.346449	1.942697	2.446397	2.335067	0.535258	1.371297	1.821611	2.005484	2.360469	0.553479	0.913985	1.707427	1.580437	2.056566	-0.051934	0.473863	0.832233	1.535341	1.816783	-2.140977	0.051934	0.464454	0.778611	1.490167	1.208043	0.558661	0.666789	0.730349	0.705309	-1.174612	-3.154779
-109.000000	1.700090	2.101863	0.267708	0.965730	1.499047	2.100214	2.045392	0.249875	0.963083	1.444069	1.536405	1.996332	0.250199	0.619575	1.332405	1.050360	1.295132	-0.292634	0.174488	0.578639	1.215984	1.422333	-1.753527	0.292634	0.159553	0.558973	1.243610	0.891388	0.556166	0.518417	0.571439	0.579343	-1.121124	-3.058934
-108.000000	1.434042	1.688002	0.037300	0.612133	1.081944	1.711710	1.612523	0.015921	0.629524	1.098932	1.184050	1.435109	0.025758	0.369745	1.013630	0.744257	0.647925	-0.391965	-0.066816	0.332361	0.924783	1.098623	-0.848670	0.391965	-0.082183	0.336837	1.026223	0.650860	0.650459	0.351758	0.433485	0.429044	-1.103591	-2.987207
-107.000000	1.221802	1.428468	-0.061999	0.466592	0.802146	1.382056	1.201667	-0.098137	0.501038	0.879401	0.958589	0.915710	-0.052406	0.314267	0.819015	0.630199	0.368245	-0.347516	-0.169045	0.237000	0.740205	0.817095	0.306095	0.347515	-0.175385	0.236261	0.924434	0.473438	0.794552	0.263340	0.394046	0.340695	-1.187290	-3.029663
-106.000000	1.040019	1.258542	-0.137749	0.437688	0.612964	1.072485	0.821903	-0.171616	0.483244	0.720480	0.724261	0.488419	-0.105550	0.436838	0.689222	0.503232	0.352373	-0.224643	-0.219329	0.288762	0.620969	0.521714	1.232100	0.224643	-0.224635	0.247690	0.863236	0.301246	0.837019	0.245817	0.385338	0.292401	-1.259201	-3.082013
-105.000000	0.880624	1.139962	-0.201447	0.445648	0.513952	0.804524	0.471602	-0.211427	0.502285	0.618293	0.579944	0.114959	-0.152573	0.634945	0.655829	0.506426	0.282734	-0.133346	-0.236166	0.444424	0.585864	0.335107	1.707775	0.133346	-0.257047	0.342265	0.833902	0.196059	0.773690	0.305655	0.416200	0.277275	-1.204151	-3.067779
-104.000000	0.834730	1.117547	-0.123995	0.536111	0.567927	0.662326	0.327546	-0.121902	0.574349	0.631860	0.630953	-0.058491	-0.070126	0.770939	0.738611	0.701434	0.150122	-0.112143	-0.135310	0.608190	0.655156	0.301122	1.808587	0.112143	-0.162542	0.488518	0.858589	0.212727	0.641036	0.460591	0.511252	0.274735	-1.101502	-3.036133
-103.000000	0.916825	1.180786	0.070109	0.680721	0.712679	0.638218	0.466974	0.055463	0.678028	0.713342	0.703827	0.084681	0.109025	0.781631	0.835230	0.723212	0.266134	-0.089934	0.059678	0.669813	0.747151	0.295677	1.696750	0.089934	0.027875	0.613513	0.883818	0.299317	0.432059	0.643327	0.612343	0.263517	-1.112005	-3.009510
-102.000000	1.145949	1.322252	0.323500	0.887010	0.926879	0.714746	0.751111	0.282686	0.882730	0.870747	0.745738	0.438189	0.338020	0.914458	0.968140	0.548334	0.745444	0.025720	0.325669	0.779098	0.871276	0.369918	1.457931	-0.025720	0.283529	0.792588	0.965527	0.449026	0.213588	0.836358	0.735068	0.302243	-1.152681	-2.968378
-101.000000	1.474800	1.530396	0.601353	1.153426	1.214491	0.874011	0.985930	0.537701	1.205977	1.108901	0.851092	0.799825	0.594697	1.269942	1.168219	0.499144	1.453323	0.239494	0.613966	1.050508	1.047140	0.588781	0.969015	-0.239494	0.572446	1.069556	1.127963	0.622898	0.073737	1.022412	0.862721	0.369151	-1.033350	-2.859355
-100.000000	1.741261	1.749974	0.847133	1.441290	1.540170	1.097744	1.090480	0.775269	1.552673	1.393716	1.115415	1.003327	0.826652	1.646244	1.401218	0.811294	2.106580	0.423425	0.850153	1.376953	1.268102	0.939105	0.210620	-0.423425	0.812921	1.375589	1.334650	0.809220	0.086935	1.192252	0.988691	0.437987	-0.806418	-2.666357
-99.000000	1.865413	1.924864	0.986026	1.680356	1.853844	1.326331	1.034050	0.935993	1.823505	1.695852	1.574623	0.915883	0.964364	1.929416	1.655955	1.551527	2.310583	0.540379	0.982620	1.665170	1.532154	1.375323	-0.582802	-0.540379	0.935829	1.665143	1.571770	1.008081	0.187549	1.377525	1.135448	0.514686	-0.522528	-2.391455
-98.000000	1.835299	2.012372	0.913733	1.729429	2.021726	1.449063	0.808552	0.884790	1.872083	1.882570	2.052453	0.482343	0.883341	2.033945	1.799258	2.372578	1.887653	0.632774	0.902314	1.807426	1.693764	1.624335	-1.256226	-0.632773	0.842115	1.814063	1.713359	1.010635	0.106014	1.509396	1.215706	0.518168	-0.241750	-2.092748
-97.000000	1.603183	1.959745	0.638828	1.561383	1.946086	1.394187	0.519939	0.613190	1.703071	1.836502	2.195033	-0.093446	0.587669	1.940455	1.699590	2.687749	0.934656	0.642938	0.614536	1.744916	1.619389	1.502318	-1.735594	-0.642938	0.564635	1.742321	1.642519	0.700173	-0.277290	1.509764	1.172750	0.409786	-0.200283	-1.895993
-96.000000	1.184532	1.755271	0.282383	1.283323	1.682204	1.206528	0.282123	0.272331	1.481517	1.609884	1.845021	-0.419622	0.231216	1.754414	1.430600	2.257481	-0.133179	0.510167	0.260838	1.552752	1.385737	1.233311	-1.821831	-0.510167	0.233420	1.516309	1.425588	0.350526	-0.651552	1.389705	1.048082	0.265446	-0.409845	-1.808932
-95.000000	0.773749	1.462631	0.031791	1.014201	1.335971	0.983432	0.171568	0.028213	1.267081	1.318844	1.150571	-0.295928	-0.006955	1.496399	1.112059	1.293957	-0.753296	0.246303	-0.017232	1.275993	1.115945	0.973238	-1.463083	-0.246303	-0.030237	1.224704	1.171726	0.197036	-0.638299	1.214807	0.909107	0.186750	-0.616213	-1.715866
-94.000000	0.565545	1.169154	0.034296	0.847374	1.023230	0.795333	0.236393	0.014348	1.116423	1.053196	0.364717	0.071154	-0.001202	1.251934	0.829952	0.236060	-0.792432	-0.009749	-0.068464	1.009617	0.889273	0.616842	-0.983680	0.009749	-0.077732	0.996043	0.952935	0.163560	-0.246774	1.116177	0.851909	0.247667	-0.595059	-1.525972
-93.000000	0.542353	0.864279	0.230882	0.786180	0.820653	0.653996	0.276547	0.214424	1.104384	0.871535	-0.175760	0.237676	0.205302	1.141156	0.667399	-0.400603	-0.601618	-0.109641	0.132666	0.878575	0.765362	0.189620	-0.765833	0.109641	0.116168	0.916684	0.828516	0.166051	0.184855	1.171561	0.916122	0.410796	-0.325652	-1.310197
-92.000000	0.556913	0.438280	0.479009	0.713540	0.642594	0.456001	0.043362	0.486218	1.105183	0.720170	-0.382184	0.004999	0.478860	1.015358	0.580588	-0.460076	-0.569471	-0.060274	0.435995	0.800865	0.707675	-0.132718	-0.864215	0.060274	0.423836	0.920567	0.779851	0.263241	0.343621	1.310053	1.056551	0.578905	0.044182	-1.170081
-91.000000	0.477073	-0.089874	0.645392	0.527166	0.380247	0.178675	-0.382222	0.679730	0.935817	0.515352	-0.460927	-0.450005	0.683117	0.716988	0.448355	-0.281214	-0.776714	0.049923	0.669933	0.644126	0.632281	-0.258452	-1.001762	-0.049923	0.679413	0.898466	0.739193	0.483588	0.238737	1.417019	1.198779	0.703340	0.402456	-1.049234
-90.000000	0.301384	-0.564577	0.655383	0.293532	0.099203	-0.028949	-0.786020	0.715073	0.626032	0.276726	-0.526556	-0.860489	0.734600	0.347638	0.246880	-0.251915	-0.982515	0.118701	0.754909	0.434823	0.494030	-0.369255	-0.782438	-0.118701	0.794263	0.815731	0.632161	0.483124	0.141151	1.424963	1.235914	0.736387	0.596369	-0.919901
-89.000000	0.163147	-0.818408	0.591451	0.150313	-0.067482	-0.087820	-1.013339	0.648394	0.352689	0.092914	-0.546307	-1.027942	0.684860	0.119776	0.056715	-0.396739	-0.977498	0.093660	0.749150	0.291074	0.335103	-0.656044	-0.078942	-0.093660	0.817229	0.741889	0.455236	-0.000566	0.234988	1.361786	1.169601	0.726875	0.563837	-0.818435
-88.000000	0.086273	-0.832796	0.517406	0.088778	-0.130237	-0.112634	-1.021121	0.552810	0.176155	-0.012330	-0.486672	-0.974699	0.595334	0.103454	-0.073158	-0.518484	-0.811022	0.034297	0.707778	0.269625	0.223863	-0.968229	0.747767	-0.034297	0.788164	0.731992	0.300460	-0.569797	0.458459	1.286789	1.086613	0.778429	0.488889	-0.688100
-87.000000	-0.077329	-0.826376	0.336504	-0.051447	-0.209563	-0.215057	-0.946750	0.348846	-0.039093	-0.149018	-0.451858	-0.927840	0.396227	0.091207	-0.227790	-0.644371	-0.598560	-0.008164	0.541993	0.229874	0.092619	-1.155862	1.297321	0.008164	0.621411	0.680832	0.155629	-0.881373	0.641937	1.170736	0.964091	0.807130	0.420078	-0.517200
-86.000000	-0.359065	-0.901646	0.009916	-0.356349	-0.396550	-0.417820	-0.942617	-0.007602	-0.416355	-0.413065	-0.686030	-1.017961	0.053735	-0.176136	-0.498055	-0.975654	-0.460967	-0.009423	0.222760	-0.039082	-0.175967	-1.330388	1.411355	0.009423	0.292051	0.455542	-0.091349	-1.080775	0.584888	0.954947	0.720098	0.623433	0.265171	-0.406801
-85.000000	-0.559193	-0.905623	-0.302775	-0.654193	-0.612968	-0.670808	-0.980242	-0.335685	-0.800647	-0.709939	-1.149094	-1.155890	-0.268070	-0.618771	-0.802024	-1.452620	-0.463188	0.076185	-0.084236	-0.492811	-0.521912	-1.575611	1.163434	-0.076185	-0.030785	0.110169	-0.397967	-1.322773	0.248620	0.661222	0.370952	0.222407	0.091601	-0.433804
-84.000000	-0.583363	-0.741191	-0.490189	-0.755499	-0.704571	-0.872978	-0.961748	-0.519644	-0.921230	-0.861465	-1.462221	-1.198202	-0.449082	-0.876318	-0.965218	-1.700528	-0.578453	0.195687	-0.267106	-0.849793	-0.757080	-1.703863	0.798456	-0.195687	-0.223380	-0.175738	-0.592062	-1.487276	-0.155390	0.398094	0.048551	-0.208292	-0.052398	-0.521907
-83.000000	-0.491252	-0.486932	-0.532304	-0.677395	-0.627483	-0.930525	-0.833961	-0.556481	-0.811431	-0.799069	-1.475070	-1.076169	-0.478562	-0.861762	-0.899081	-1.620671	-0.855734	0.270683	-0.311140	-0.922413	-0.764829	-1.480625	0.538172	-0.270683	-0.273724	-0.273163	-0.570015	-1.369024	-0.385133	0.294002	-0.100290	-0.483835	-0.191131	-0.537947
-82.000000	-0.300262	-0.280495	-0.408275	-0.482026	-0.419003	-0.826044	-0.601046	-0.415760	-0.661808	-0.582644	-1.315395	-0.840638	-0.350545	-0.779839	-0.670866	-1.512053	-1.245147	0.261130	-0.209639	-0.755092	-0.597952	-1.060424	0.477299	-0.261129	-0.185871	-0.202369	-0.397227	-1.030500	-0.363829	0.298931	-0.120349	-0.619353	-0.289698	-0.526174
-81.000000	-0.056334	-0.144269	-0.206269	-0.178152	-0.146268	-0.650253	-0.349082	-0.189896	-0.399279	-0.305687	-1.077996	-0.578367	-0.154495	-0.545807	-0.382496	-1.437254	-1.415844	0.175518	-0.046774	-0.422367	-0.370088	-0.787620	0.584589	-0.175518	-0.034730	-0.030052	-0.201345	-0.712948	-0.190761	0.246377	-0.183123	-0.796936	-0.378438	-0.501989
-80.000000	0.146117	0.011131	-0.066373	0.138051	0.118528	-0.473346	-0.194389	-0.031051	-0.001964	-0.016426	-0.759818	-0.391233	-0.020938	-0.113696	-0.083624	-1.127104	-1.231556	0.118947	0.064077	-0.021307	-0.115393	-0.657327	0.795145	-0.118947	0.079684	0.212223	-0.009186	-0.488635	0.014742	0.158903	-0.255683	-1.005978	-0.435051	-0.293283
-79.000000	0.151286	0.124210	-0.089875	0.238363	0.215468	-0.420257	-0.256546	-0.031342	0.219858	0.157606	-0.459757	-0.424713	-0.047248	0.149435	0.097106	-0.648382	-0.980708	0.100478	0.058097	0.212199	0.079226	-0.561526	1.041805	-0.100478	0.079726	0.404880	0.129731	-0.348737	0.162104	0.136280	-0.235942	-1.068939	-0.336371	0.130929
-78.000000	-0.097672	0.066643	-0.235920	0.034445	0.052923	-0.554733	-0.485365	-0.158638	0.099145	0.104275	-0.342245	-0.594889	-0.199619	0.105986	0.071280	-0.401718	-0.883815	0.053639	-0.044172	0.210828	0.119297	-0.540023	1.318489	-0.053638	-0.016407	0.462355	0.151491	-0.303324	0.196923	0.169109	-0.147755	-0.926857	-0.134174	0.599616
-77.000000	-0.431414	-0.106756	-0.363636	-0.301002	-0.213598	-0.700449	-0.658410	-0.278474	-0.199603	-0.064905	-0.314792	-0.693941	-0.340762	-0.031849	-0.058102	-0.404755	-0.927621	-0.013775	-0.152874	0.149079	0.081936	-0.539048	1.598714	0.013775	-0.117600	0.436189	0.115654	-0.288779	0.097073	0.209601	-0.047726	-0.650495	0.006675	0.992288
-76.000000	-0.704576	-0.296163	-0.415989	-0.557266	-0.424224	-0.754066	-0.715883	-0.336138	-0.447986	-0.198193	-0.152604	-0.762165	-0.406184	-0.146914	-0.147752	-0.277661	-1.030889	-0.059608	-0.213159	0.117986	0.077220	-0.403854	1.720518	0.059608	-0.191914	0.362097	0.114191	-0.213194	-0.086612	0.225941	0.030713	-0.362377	0.076726	1.324683
-75.000000	-0.890771	-0.478989	-0.372070	-0.654939	-0.554438	-0.728317	-0.669684	-0.322438	-0.570706	-0.264045	0.096503	-0.808231	-0.367104	-0.285867	-0.150630	0.133022	-1.166310	-0.004772	-0.201773	0.053547	0.110164	-0.093042	1.582535	0.004772	-0.209268	0.261590	0.165981	-0.031462	-0.238105	0.216786	0.090974	-0.153087	0.175489	1.652448
-74.000000	-1.024766	-0.675207	-0.296452	-0.659123	-0.657868	-0.675444	-0.568082	-0.286507	-0.643690	-0.318905	0.249187	-0.763417	-0.292472	-0.507003	-0.156857	0.584710	-1.389910	0.125795	-0.185734	-0.128311	0.096717	0.217918	1.196160	-0.125795	-0.214050	0.142513	0.187866	0.169827	-0.364456	0.152127	0.095760	-0.056297	0.205520	1.881170
-73.000000	-1.110167	-0.859047	-0.310706	-0.642260	-0.748605	-0.683016	-0.558472	-0.323843	-0.708137	-0.386956	0.316894	-0.663238	-0.305884	-0.748128	-0.225072	0.858835	-1.420565	0.172583	-0.264118	-0.367898	0.010897	0.378876	0.680472	-0.172583	-0.298101	0.010173	0.142982	0.288285	-0.487053	0.042926	0.044921	-0.027055	-0.004169	1.876871
-72.000000	-1.077342	-0.964666	-0.382463	-0.549332	-0.728925	-0.665953	-0.543721	-0.402604	-0.681716	-0.388124	0.369679	-0.421332	-0.378269	-0.846258	-0.240188	0.951507	-0.887011	0.065960	-0.374901	-0.476995	-0.026405	0.468879	0.259048	-0.065960	-0.402603	-0.053743	0.149238	0.388307	-0.470762	-0.008680	0.043045	0.042253	-0.360822	1.709619
-71.000000	-0.916840	-0.975312	-0.364868	-0.343236	-0.552790	-0.525900	-0.386311	-0.386471	-0.498293	-0.252037	0.424961	-0.064787	-0.371674	-0.724664	-0.111275	1.023152	-0.118935	-0.143017	-0.361358	-0.370159	0.079393	0.624702	0.023528	0.143017	-0.372376	0.026786	0.294784	0.550117	-0.270749	0.031980	0.130464	0.170761	-0.650221	1.498066
-70.000000	-0.755193	-0.954117	-0.278143	-0.185696	-0.325747	-0.347998	-0.269023	-0.298408	-0.284784	-0.051074	0.493351	0.064520	-0.291120	-0.497372	0.084948	1.250197	0.354045	-0.458479	-0.243984	-0.157197	0.273532	0.864276	-0.050817	0.458479	-0.229847	0.186255	0.503455	0.738147	-0.025139	0.115681	0.251134	0.282631	-0.780429	1.263452
-69.000000	-0.687208	-0.899122	-0.248569	-0.176576	-0.117110	-0.171134	-0.212378	-0.264062	-0.154464	0.113725	0.539019	-0.013733	-0.252957	-0.249712	0.266733	1.405350	0.498875	-0.840041	-0.151842	0.079064	0.474705	1.063118	0.053164	0.840041	-0.119162	0.355016	0.690082	0.892040	0.167587	0.230304	0.373639	0.359892	-0.794667	0.997601
-68.000000	-0.639071	-0.692585	-0.273577	-0.178403	0.119629	0.079978	0.056753	-0.274486	-0.033710	0.278836	0.486548	0.146269	-0.262907	0.060250	0.436800	1.029169	0.537315	-1.071858	-0.105626	0.376349	0.675861	1.057463	0.300709	1.071858	-0.060285	0.572622	0.869706	0.986949	0.307333	0.388278	0.509319	0.435225	-0.846220	0.739227
-67.000000	-0.567853	-0.381950	-0.287868	-0.104130	0.387614	0.373100	0.506145	-0.274261	0.125096	0.481473	0.376128	0.572828	-0.268459	0.402539	0.613361	0.287260	0.690993	-0.999263	-0.072917	0.709438	0.878297	0.905892	0.532056	0.999263	-0.016798	0.816556	1.050845	1.047548	0.421403	0.555610	0.642509	0.529276	-1.002987	0.616946
-66.000000	-0.493115	-0.129197	-0.198613	0.053544	0.670704	0.621428	0.817387	-0.192841	0.321576	0.739257	0.461139	0.887961	-0.191829	0.707210	0.847524	-0.003701	0.970958	-0.632699	0.017811	0.995155	1.099986	0.904664	0.570650	0.632699	0.073621	1.029052	1.242371	1.146974	0.516065	0.724426	0.782153	0.681594	-1.053811	0.710838
-65.000000	-0.420246	0.024563	-0.045221	0.274557	0.958413	0.796170	0.869033	-0.051826	0.538628	1.076752	0.893294	0.905834	-0.050763	0.907414	1.149188	0.633458	1.082130	-0.129993	0.148232	1.164944	1.357695	1.214220	0.436465	0.129993	0.191269	1.184797	1.446399	1.313037	0.549681	0.881346	0.928797	0.880060	-0.907270	0.946032
-64.000000	-0.374161	0.119608	0.035380	0.442112	1.173441	0.877198	0.810680	0.041893	0.674067	1.395541	1.464110	0.804165	0.054305	0.920740	1.411466	1.788565	1.011136	0.252462	0.222458	1.185243	1.590450	1.694950	0.368395	-0.252462	0.252957	1.254613	1.605547	1.503238	0.533331	0.992114	1.037134	1.074456	-0.707805	1.144973
-63.000000	-0.375608	0.104570	0.031382	0.453813	1.224792	0.870512	0.684286	0.057042	0.656076	1.533671	1.809563	0.750423	0.088132	0.776062	1.486549	2.595909	1.081075	0.395198	0.213271	1.075605	1.678449	2.058987	0.486303	-0.395198	0.229012	1.205421	1.627275	1.627248	0.511687	1.013758	1.051476	1.194280	-0.441843	1.182111
-62.000000	-0.477615	-0.096317	-0.028917	0.328657	1.109085	0.807023	0.392922	-0.012520	0.552822	1.438855	1.753403	0.614988	0.028184	0.643036	1.339551	2.575546	1.197880	0.382461	0.114489	0.923378	1.566670	2.105116	0.679267	-0.382461	0.105598	1.047118	1.463988	1.585554	0.459847	0.877501	0.914224	1.156862	-0.079904	1.115321
-61.000000	-0.685197	-0.397142	-0.122400	0.182276	0.930414	0.689500	0.059409	-0.132003	0.484418	1.231795	1.427499	0.367157	-0.099500	0.672005	1.107611	1.996164	0.969789	0.362188	-0.030434	0.861858	1.365477	1.903018	0.815810	-0.362188	-0.049803	0.901768	1.209335	1.400525	0.376630	0.651200	0.685708	0.986060	0.152677	1.058177
-60.000000	-0.910823	-0.684531	-0.204561	0.096587	0.743721	0.484790	-0.091991	-0.220805	0.472686	1.023418	1.009409	0.207378	-0.213261	0.793086	0.894097	1.255496	0.351636	0.386582	-0.137512	0.885039	1.168891	1.603581	0.764324	-0.386582	-0.156389	0.835959	0.976981	1.163159	0.309547	0.467994	0.464198	0.712974	0.151818	1.044586
-59.000000	-1.085842	-0.887757	-0.239250	0.061145	0.541117	0.253607	-0.025297	-0.240423	0.460675	0.830412	0.609143	0.246943	-0.263995	0.818053	0.718921	0.514722	-0.186509	0.350148	-0.165809	0.859959	0.982809	1.282566	0.508335	-0.350148	-0.190895	0.786248	0.802778	0.960928	0.343892	0.343976	0.280686	0.387083	0.078171	1.056522
-58.000000	-1.180237	-0.935300	-0.194334	0.068032	0.395984	0.146542	0.127798	-0.175325	0.462318	0.694046	0.394078	0.412174	-0.227334	0.724725	0.627886	0.050862	-0.190093	0.216836	-0.108819	0.764718	0.853732	1.011712	0.218572	-0.216836	-0.126231	0.735955	0.705507	0.847116	0.520302	0.247091	0.160054	0.142168	-0.049854	1.101639
-57.000000	-1.160657	-0.794799	-0.053423	0.160658	0.387953	0.220928	0.272751	-0.010322	0.575712	0.674843	0.455648	0.558832	-0.071784	0.692807	0.661557	0.094429	0.163204	0.124206	0.040231	0.732029	0.845522	0.846155	0.016445	-0.124206	0.048946	0.751321	0.706102	0.803525	0.710542	0.198589	0.144006	0.063722	-0.260561	1.193743
-56.000000	-1.069465	-0.562075	0.106586	0.306330	0.448499	0.377881	0.397101	0.164655	0.823076	0.739316	0.618966	0.632696	0.123171	0.869141	0.749613	0.357950	0.447099	0.165015	0.209841	0.843961	0.912755	0.776397	-0.161672	-0.165015	0.247162	0.841629	0.766118	0.774661	0.727496	0.216044	0.224854	0.106794	-0.450430	1.361753
-55.000000	-1.055770	-0.430706	0.189343	0.347278	0.415675	0.445359	0.443716	0.226160	1.015423	0.705042	0.599088	0.669444	0.223211	1.075626	0.715194	0.304140	0.535350	0.276238	0.287633	0.938362	0.873842	0.658223	-0.539948	-0.276238	0.334379	0.862894	0.728833	0.642185	0.493341	0.211702	0.265945	0.152462	-0.573128	1.656147
-54.000000	-1.105917	-0.402249	0.250834	0.237939	0.275612	0.361593	0.403642	0.242924	0.964551	0.498704	0.374428	0.730700	0.281597	0.991587	0.519958	-0.101988	0.466718	0.341342	0.315886	0.810169	0.666466	0.432941	-1.248575	-0.341342	0.346971	0.705518	0.512597	0.387550	0.083115	0.124825	0.192324	0.159038	-0.587412	2.033690
-53.000000	-1.027461	-0.287964	0.406390	0.156184	0.213534	0.259603	0.393089	0.368749	0.786462	0.331487	0.243653	0.845963	0.424504	0.683895	0.363783	-0.301314	0.373706	0.338083	0.412406	0.553131	0.467349	0.382982	-2.051390	-0.338083	0.430885	0.488062	0.289091	0.225283	-0.308276	0.037159	0.092795	0.163971	-0.410482	2.376180
-52.000000	-0.754566	-0.035382	0.647544	0.275862	0.362455	0.279156	0.465544	0.600841	0.729719	0.403260	0.428505	0.938760	0.645485	0.505509	0.431472	0.137787	0.470305	0.339752	0.599128	0.432076	0.468249	0.754300	-2.547785	-0.339752	0.612251	0.413921	0.270397	0.352528	-0.455868	0.058345	0.078281	0.227151	-0.208073	2.562659
-51.000000	-0.398660	0.262016	0.848377	0.564774	0.667169	0.443059	0.638071	0.803242	0.853055	0.664171	0.827373	1.031960	0.838599	0.562252	0.677737	0.981634	0.841025	0.374544	0.788899	0.516440	0.671751	1.319742	-2.515772	-0.374544	0.793806	0.528275	0.463084	0.683357	-0.282342	0.214276	0.196693	0.411186	-0.268059	2.480208
-50.000000	-0.071699	0.477088	0.961321	0.892441	0.998375	0.708647	0.926024	0.935789	1.058380	0.952413	1.211337	1.255275	0.963948	0.746998	0.952184	1.661656	1.376160	0.387404	0.932225	0.721055	0.944757	1.670621	-1.929387	-0.387404	0.924200	0.749485	0.740521	0.989937	0.101252	0.491974	0.441153	0.735073	-0.613272	2.139319
-49.000000	0.195020	0.539893	1.088345	1.188962	1.252461	0.969106	1.224350	1.097558	1.241452	1.153124	1.411986	1.546051	1.101440	0.976952	1.146407	1.858558	1.758715	0.371231	1.092804	0.955860	1.150240	1.669995	-0.961365	-0.371231	1.068193	0.972944	0.954145	1.144435	0.455528	0.783779	0.691197	1.030418	-0.928861	1.780041
-48.000000	0.356885	0.526206	1.214303	1.364857	1.362429	1.049336	1.315517	1.250772	1.307445	1.203428	1.424273	1.636439	1.223829	1.137686	1.196900	1.709062	1.776075	0.353278	1.232276	1.101091	1.207184	1.436703	0.093903	-0.353278	1.201205	1.079195	0.992327	1.106378	0.601864	0.838875	0.716083	0.994042	-0.876672	1.586994
-47.000000	0.335718	0.482834	1.178527	1.333908	1.320367	0.900207	1.082393	1.220968	1.224202	1.117745	1.425689	1.379728	1.180231	1.193377	1.131686	1.589426	1.614821	0.260208	1.206583	1.132124	1.141558	1.179695	1.035706	-0.260208	1.178790	1.039189	0.888238	0.950715	0.655066	0.585826	0.479067	0.618984	-0.511360	1.496442
-46.000000	0.082137	0.284455	0.931173	1.062746	1.090326	0.610421	0.647111	0.955579	0.985013	0.888560	1.315823	0.921980	0.926223	1.185700	0.943631	1.374231	1.361028	0.043880	0.977878	1.089675	0.950542	0.921781	1.582756	-0.043880	0.947650	0.900176	0.688372	0.753277	0.727128	0.193754	0.149842	0.201865	-0.143654	1.505100
-45.000000	-0.382994	-0.224979	0.555534	0.569125	0.624695	0.196626	0.158943	0.551411	0.588738	0.453423	0.788634	0.420252	0.542581	1.054526	0.549713	0.643925	0.821080	-0.182757	0.641009	0.933556	0.574975	0.422331	1.476403	0.182757	0.598433	0.682811	0.353603	0.405903	0.681601	-0.215658	-0.158535	-0.074078	0.043108	1.709922
-44.000000	-0.930627	-0.957331	0.185350	-0.006577	0.003939	-0.326941	-0.276628	0.163229	0.109929	-0.132509	-0.035268	-0.061529	0.166438	0.695902	-0.010401	-0.331330	0.092140	-0.287999	0.318375	0.598543	0.052406	-0.369555	0.936670	0.287999	0.268764	0.367714	-0.086351	-0.147275	0.422170	-0.590365	-0.419919	-0.212731	0.026227	2.068371
-43.000000	-1.410695	-1.659908	-0.029399	-0.505948	-0.614816	-0.849294	-0.621041	-0.060662	-0.357880	-0.699001	-0.809521	-0.465994	-0.054481	0.125155	-0.568515	-1.002019	-0.476966	-0.235874	0.111798	0.102545	-0.470219	-1.137213	0.413613	0.235874	0.073591	-0.019384	-0.502117	-0.712327	0.043021	-0.854049	-0.610912	-0.250070	-0.169625	2.458586
-42.000000	-1.770753	-2.211540	-0.060451	-0.863133	-1.103181	-1.189428	-0.888342	-0.095604	-0.722041	-1.122585	-1.351896	-0.739699	-0.088429	-0.452925	-0.988776	-1.391184	-0.798186	-0.124874	0.049291	-0.398220	-0.853703	-1.608245	0.170286	0.124875	0.043004	-0.369993	-0.780804	-1.061813	-0.270237	-0.973906	-0.700140	-0.237179	-0.398328	2.802461
-41.000000	-2.029970	-2.598537	-0.017507	-1.071431	-1.412508	-1.284938	-1.047212	-0.046105	-0.921133	-1.387187	-1.644045	-0.831219	-0.030730	-0.829846	-1.233063	-1.744025	-0.951563	-0.150501	0.058671	-0.731394	-1.060904	-1.760255	0.229697	0.150501	0.095895	-0.605908	-0.897813	-1.128622	-0.388647	-0.984161	-0.698599	-0.225968	-0.522086	3.048409
-40.000000	-2.238715	-2.838051	-0.005917	-1.178878	-1.593257	-1.294960	-1.102502	-0.024195	-1.011178	-1.548857	-1.778226	-0.754568	0.004398	-0.994688	-1.349678	-2.039584	-0.975438	-0.335629	0.061546	-0.886707	-1.155887	-1.695368	0.347283	0.335629	0.118835	-0.742584	-0.929139	-1.025896	-0.386502	-0.938917	-0.674464	-0.237126	-0.632480	3.200898
-39.000000	-2.369061	-2.929090	-0.070923	-1.228009	-1.701000	-1.343756	-1.115226	-0.080986	-1.080661	-1.660972	-1.838065	-0.605961	-0.046632	-1.084910	-1.406473	-2.162192	-0.938369	-0.505949	0.018499	-0.973348	-1.213910	-1.530467	0.177421	0.505949	0.054744	-0.840182	-0.970852	-0.910914	-0.407418	-0.904638	-0.687760	-0.280644	-0.803771	3.306335
-38.000000	-2.281473	-2.839509	-0.145429	-1.165053	-1.656685	-1.336222	-1.084482	-0.145732	-1.095937	-1.659081	-1.735979	-0.434591	-0.122631	-1.134358	-1.366050	-1.948672	-0.815700	-0.567025	-0.035009	-1.004757	-1.195154	-1.275514	-0.308293	0.567025	-0.032655	-0.888278	-1.002660	-0.791033	-0.441544	-0.908600	-0.745727	-0.367095	-0.794393	3.362061
-37.000000	-1.912751	-2.533870	-0.090999	-0.920932	-1.361535	-1.151835	-0.935845	-0.084889	-0.944701	-1.446172	-1.361664	-0.236162	-0.084094	-0.992273	-1.147024	-1.307685	-0.524320	-0.559374	0.021641	-0.858748	-1.020664	-0.918346	-0.763862	0.559374	0.003540	-0.790326	-0.924465	-0.613156	-0.383991	-0.901413	-0.793814	-0.460537	-0.436292	3.340887
-36.000000	-1.378850	-2.059137	0.108727	-0.540346	-0.909354	-0.833724	-0.665312	0.117283	-0.614456	-1.066154	-0.824822	-0.030406	0.107553	-0.583927	-0.792040	-0.486312	-0.042118	-0.498665	0.226429	-0.488686	-0.730254	-0.519463	-0.876623	0.498665	0.213994	-0.514045	-0.728220	-0.394339	-0.218222	-0.819131	-0.756737	-0.484676	0.021188	3.218528
-35.000000	-0.966561	-1.655032	0.277127	-0.229294	-0.541951	-0.532751	-0.363261	0.289235	-0.318276	-0.718384	-0.430918	0.179255	0.287985	-0.141615	-0.514454	-0.039781	0.633085	-0.416432	0.408976	-0.107494	-0.508134	-0.234939	-0.645650	0.416432	0.418535	-0.234270	-0.588516	-0.206415	-0.158247	-0.733646	-0.702019	-0.480934	0.252212	3.010405
-34.000000	-0.846121	-1.423698	0.310820	-0.085813	-0.347343	-0.335664	-0.066002	0.314787	-0.204229	-0.517717	-0.330990	0.408966	0.328978	0.071014	-0.424220	-0.247988	1.342677	-0.375571	0.440855	0.066225	-0.444250	-0.172150	-0.284666	0.375571	0.457402	-0.112127	-0.585057	-0.031721	-0.385182	-0.742465	-0.706267	-0.519817	0.229994	2.798783
-33.000000	-0.836635	-1.174653	0.349516	0.079760	-0.158840	-0.195538	0.205117	0.344638	-0.068421	-0.319637	-0.300092	0.628852	0.364376	0.184629	-0.327451	-0.645415	1.820255	-0.335472	0.445255	0.178888	-0.352884	-0.149431	0.062534	0.335472	0.456485	0.006150	-0.501429	0.272901	-0.624332	-0.710837	-0.627646	-0.466921	0.172508	2.604241
-32.000000	-0.759243	-0.812750	0.466936	0.344471	0.118633	-0.093039	0.381486	0.471633	0.226274	-0.020913	-0.120681	0.778203	0.479376	0.421015	-0.091386	-0.663295	2.030996	-0.295231	0.504616	0.427610	-0.121662	-0.058444	0.508377	0.295231	0.514892	0.287183	-0.247690	0.481929	-0.502516	-0.533245	-0.402067	-0.249372	0.218444	2.415911
-31.000000	-0.688714	-0.459133	0.580380	0.558242	0.394769	-0.021715	0.435059	0.600028	0.490500	0.277836	0.213845	0.812013	0.588954	0.652750	0.181482	-0.168286	2.014256	-0.271353	0.557045	0.680692	0.126584	0.028859	1.032979	0.271353	0.570910	0.582737	-0.004845	0.282001	-0.114730	-0.345101	-0.199238	-0.069104	0.312329	2.300057
-30.000000	-0.651185	-0.194842	0.742667	0.707255	0.639523	0.108147	0.434356	0.777851	0.626014	0.536259	0.661031	0.768418	0.754114	0.688155	0.451201	0.717065	1.695291	-0.181641	0.689318	0.760193	0.347499	0.241393	1.219753	0.181641	0.711475	0.684895	0.171327	0.029806	0.261866	-0.191936	-0.060567	0.006101	0.287856	2.279946
-29.000000	-0.557187	0.018936	0.964216	0.866037	0.848687	0.315303	0.490760	1.016684	0.712144	0.765032	1.066939	0.769007	0.986976	0.595451	0.699543	1.584201	1.204163	-0.060201	0.912315	0.683443	0.549111	0.617541	0.804012	0.060201	0.940082	0.586953	0.326721	0.070704	0.564783	-0.051295	0.073103	0.085898	0.046882	2.272709
-28.000000	-0.477269	0.105983	1.058871	0.939562	0.886153	0.418690	0.446229	1.115733	0.717095	0.828572	1.171486	0.723287	1.082312	0.476951	0.778848	1.883653	0.710835	-0.032601	0.994988	0.523027	0.619930	0.835125	-0.026603	0.032601	1.023172	0.385096	0.387385	0.203101	0.782635	-0.037075	0.122279	0.172931	-0.270061	2.263216
-27.000000	-0.502916	-0.070951	0.990438	0.822751	0.682173	0.292750	0.086098	1.028583	0.599072	0.657860	0.956131	0.447203	1.006225	0.360835	0.644659	1.554375	0.197317	-0.071773	0.883969	0.351559	0.515064	0.694247	-0.869123	0.071773	0.910210	0.170357	0.306199	0.205286	0.853639	-0.169317	0.059179	0.249048	-0.347565	2.390447
-26.000000	-0.626269	-0.435638	0.797480	0.549030	0.337860	0.047471	-0.361065	0.817297	0.425505	0.383163	0.660548	0.068935	0.809297	0.294492	0.398087	0.968159	-0.249473	-0.144154	0.659114	0.221606	0.338763	0.365400	-1.339980	0.144154	0.672819	0.010124	0.156870	0.094666	0.804846	-0.340925	-0.033587	0.329350	-0.178535	2.702223
-25.000000	-0.834235	-0.816869	0.496732	0.224462	-0.027313	-0.194375	-0.575832	0.515303	0.275783	0.117855	0.445825	-0.173291	0.507650	0.282886	0.138507	0.392180	-0.495648	-0.300496	0.366572	0.132498	0.195187	0.064784	-1.227669	0.300496	0.365320	-0.079584	0.029951	-0.005331	0.764284	-0.472432	-0.089701	0.440904	-0.174725	3.009897
-24.000000	-1.027045	-1.102425	0.249617	-0.029617	-0.308307	-0.346717	-0.497447	0.263427	0.190039	-0.097981	0.244604	-0.131285	0.255089	0.298077	-0.052637	-0.100130	-0.554956	-0.504841	0.131409	0.105493	0.128695	-0.122052	-0.565547	0.504841	0.132182	-0.093920	-0.008859	0.003441	0.818406	-0.498896	-0.062997	0.600687	-0.535626	3.101290
-23.000000	-1.120771	-1.292486	0.155903	-0.154158	-0.447699	-0.340891	-0.264016	0.166212	0.142339	-0.255231	-0.022366	0.129347	0.151591	0.319822	-0.154301	-0.499885	-0.487374	-0.651024	0.037182	0.145750	0.120805	-0.186760	0.432811	0.651024	0.045044	-0.046640	0.029125	0.105299	0.919539	-0.430279	0.021008	0.758171	-1.026266	2.944232
-22.000000	-1.182163	-1.452551	0.153574	-0.145535	-0.472179	-0.282222	-0.104229	0.176301	0.115971	-0.342591	-0.214668	0.271588	0.158013	0.370268	-0.163669	-0.668209	-0.461049	-0.677607	0.048880	0.225144	0.148928	-0.147163	1.467052	0.677607	0.051681	0.028145	0.080420	0.201841	0.944956	-0.351735	0.075142	0.828726	-1.329797	2.658167
-21.000000	-1.248462	-1.512295	0.172771	-0.032077	-0.348522	-0.231457	-0.029897	0.210030	0.187356	-0.265905	-0.138455	0.193635	0.217190	0.571927	-0.011020	-0.442753	-0.546599	-0.639735	0.117617	0.410368	0.289867	0.004489	2.318749	0.639735	0.113817	0.181711	0.195659	0.288631	0.880895	-0.279405	0.089439	0.778085	-1.336118	2.347559
-20.000000	-1.279724	-1.427871	0.161665	0.054557	-0.091016	-0.101449	0.042206	0.202605	0.322109	-0.035638	0.185643	0.131742	0.247194	0.868669	0.249320	0.024273	-0.441313	-0.587907	0.189675	0.679890	0.530566	0.239614	2.816245	0.587907	0.189212	0.405068	0.384240	0.400629	0.777935	-0.206139	0.088282	0.633043	-1.107003	2.089489
-19.000000	-1.283144	-1.258386	0.113914	0.012785	0.116648	0.049716	0.136957	0.143896	0.325673	0.134015	0.443109	0.303475	0.193290	0.917436	0.406738	0.330910	-0.010829	-0.501585	0.215809	0.795847	0.683211	0.454716	2.709163	0.501585	0.220807	0.518644	0.491192	0.493580	0.625185	-0.182037	0.042782	0.425618	-0.827402	1.982534
-18.000000	-1.262595	-1.014081	0.111350	-0.056396	0.231368	0.178386	0.306205	0.125122	0.170717	0.189488	0.508234	0.645574	0.150475	0.592643	0.443188	0.437754	0.412720	-0.438818	0.250689	0.657153	0.728368	0.705980	1.993479	0.438818	0.256682	0.466726	0.510829	0.619317	0.491929	-0.194795	-0.020966	0.225429	-0.658584	2.018171
-17.000000	-1.235941	-0.777597	0.177735	-0.095700	0.326790	0.282475	0.372237	0.180633	-0.034686	0.245317	0.652814	0.703169	0.184419	0.114569	0.463424	0.767766	0.556688	-0.406695	0.325255	0.378936	0.754522	1.082123	0.966951	0.406695	0.328597	0.327246	0.521883	0.793665	0.382483	-0.227509	-0.096074	0.055290	-0.488014	2.119953
-16.000000	-1.170861	-0.580102	0.279976	-0.056364	0.487656	0.397254	0.167586	0.274540	-0.082464	0.438838	1.153877	0.244155	0.261844	-0.095616	0.599942	1.635033	0.588435	-0.261342	0.404015	0.237526	0.852519	1.545978	0.126891	0.261342	0.411700	0.266896	0.591651	0.940592	0.248194	-0.213956	-0.131770	-0.026328	-0.214244	2.303136
-15.000000	-0.982748	-0.356085	0.372287	0.173623	0.779563	0.589508	-0.104289	0.356998	0.240466	0.814675	1.835446	-0.278530	0.341653	0.272247	0.956412	2.753983	0.687802	-0.033021	0.456180	0.469034	1.129684	2.117014	0.016800	0.033021	0.480260	0.473733	0.817891	1.155723	0.247405	-0.038624	0.009638	0.119448	-0.036721	2.568785
-14.000000	-0.734655	-0.202362	0.350983	0.440480	1.010796	0.718927	-0.140900	0.321373	0.702022	1.084364	1.964220	-0.285356	0.326940	0.904104	1.261595	3.125061	0.788747	0.059871	0.402989	0.882079	1.400933	2.446164	0.651923	-0.059871	0.435664	0.837739	1.045010	1.368858	0.402222	0.211320	0.243808	0.391265	-0.120339	2.797134
-13.000000	-0.641477	-0.273882	0.137002	0.425015	0.917952	0.609987	-0.013312	0.093149	0.807522	0.948633	1.276437	0.069837	0.119003	1.187240	1.169644	2.264116	0.713688	-0.060399	0.169264	1.071751	1.344655	2.049741	1.467935	0.060399	0.209612	1.054372	1.008619	1.276151	0.469692	0.348865	0.369100	0.550528	-0.342356	2.898878
-12.000000	-0.864464	-0.596111	-0.215363	0.046857	0.490228	0.253908	-0.027695	-0.251334	0.391993	0.460255	0.325282	0.217289	-0.228351	0.873179	0.718550	0.868783	0.337515	-0.257990	-0.163942	0.852063	0.937305	1.135689	1.828149	0.257990	-0.118407	0.886601	0.682286	0.836187	0.307078	0.253997	0.277005	0.463564	-0.534122	2.875935
-11.000000	-1.286642	-1.054577	-0.501469	-0.451038	-0.052148	-0.205594	-0.190608	-0.497981	-0.238673	-0.098225	-0.377688	0.145863	-0.485543	0.218292	0.199156	-0.229467	-0.061305	-0.344090	-0.381057	0.410928	0.448841	0.257548	1.557969	0.344090	-0.352666	0.439984	0.272979	0.327171	0.043195	0.020076	0.049220	0.232148	-0.652764	2.818786
-10.000000	-1.653928	-1.452881	-0.591075	-0.801067	-0.467839	-0.615310	-0.449495	-0.546378	-0.655829	-0.469079	-0.655444	-0.025745	-0.536159	-0.290940	-0.119583	-0.591317	-0.271637	-0.204297	-0.411539	0.100336	0.157620	-0.206073	1.018351	0.204297	-0.398885	0.119683	0.044575	0.071700	-0.079111	-0.066004	-0.038205	0.169094	-0.636230	2.941801
-9.000000	-1.773828	-1.566613	-0.557202	-0.852296	-0.588402	-0.761991	-0.725613	-0.497425	-0.660511	-0.510676	-0.508489	-0.319601	-0.488392	-0.373182	-0.113563	-0.238629	-0.459581	0.116917	-0.363171	0.104978	0.183173	-0.144696	0.665293	-0.116917	-0.345309	0.135051	0.117419	0.192213	0.062821	0.140240	0.180807	0.447321	-0.522984	3.286831
-8.000000	-1.669485	-1.425081	-0.534144	-0.649181	-0.478028	-0.578073	-0.815742	-0.479462	-0.390801	-0.319789	-0.189391	-0.518785	-0.473328	-0.172164	0.073441	0.234204	-0.765371	0.409958	-0.353666	0.288982	0.397838	0.177696	0.607880	-0.409958	-0.325347	0.327822	0.334692	0.499267	0.321703	0.481513	0.538860	0.866640	-0.527406	3.660689
-7.000000	-1.591516	-1.325483	-0.500487	-0.489833	-0.428937	-0.419693	-0.756489	-0.460382	-0.191021	-0.199684	-0.073166	-0.543664	-0.454145	-0.043818	0.149602	0.286933	-1.096189	0.559948	-0.354299	0.373303	0.527813	0.377470	0.575083	-0.559948	-0.325619	0.439706	0.420653	0.662257	0.370509	0.723528	0.747384	1.060502	-0.599339	3.988110
-6.000000	-1.634350	-1.324157	-0.370961	-0.541184	-0.511112	-0.484026	-0.603478	-0.345857	-0.186020	-0.243390	-0.210485	-0.460754	-0.337562	-0.074489	0.081098	-0.003152	-1.179043	0.622181	-0.256300	0.343345	0.516487	0.422735	0.448908	-0.622181	-0.229163	0.449706	0.359374	0.634619	0.178670	0.844943	0.775570	0.976982	-0.496128	4.227386
-5.000000	-1.729093	-1.325265	-0.237826	-0.708423	-0.607312	-0.602473	-0.371747	-0.210791	-0.274647	-0.366020	-0.410062	-0.304361	-0.203756	-0.151650	-0.050551	-0.369348	-1.011256	0.634078	-0.118637	0.299146	0.429974	0.419306	0.319949	-0.634078	-0.079573	0.438755	0.260412	0.566468	-0.042988	0.885661	0.728704	0.824635	-0.190117	4.318680
-4.000000	-1.878189	-1.381156	-0.225396	-0.901931	-0.675133	-0.694625	-0.296385	-0.185136	-0.434638	-0.526485	-0.544589	-0.281161	-0.177202	-0.269878	-0.249541	-0.611727	-0.857760	0.569459	-0.070377	0.213784	0.265048	0.334785	0.139316	-0.569459	-0.002422	0.398986	0.132145	0.477872	-0.226612	0.835400	0.653300	0.746401	0.225864	4.334986
-3.000000	-2.061820	-1.536124	-0.327501	-1.088731	-0.687061	-0.760689	-0.490282	-0.278140	-0.635017	-0.661356	-0.536874	-0.516870	-0.260562	-0.379957	-0.441145	-0.534255	-0.810018	0.388180	-0.117838	0.111869	0.084748	0.204507	-0.199650	-0.388180	-0.028530	0.330490	0.011543	0.364605	-0.415605	0.721562	0.569289	0.743190	0.656259	4.284006
-2.000000	-2.228628	-1.741283	-0.510460	-1.266559	-0.656846	-0.789199	-0.809913	-0.454274	-0.825481	-0.727691	-0.414605	-0.882261	-0.433844	-0.461060	-0.557035	-0.201381	-0.809093	0.117175	-0.246938	0.012497	-0.051299	0.103797	-0.681655	-0.117175	-0.167954	0.220607	-0.073959	0.234080	-0.659425	0.560807	0.452245	0.732214	0.913936	4.099050
-1.000000	-2.274225	-1.888166	-0.675697	-1.334686	-0.561610	-0.738853	-1.073277	-0.622572	-0.934208	-0.694427	-0.272592	-1.175207	-0.603390	-0.582523	-0.576338	0.153734	-0.775262	-0.146176	-0.401059	-0.113547	-0.126017	0.109015	-1.162767	0.146176	-0.345768	0.099151	-0.111958	0.150592	-0.869889	0.423943	0.341957	0.740937	0.842116	3.794887
0.000000	-2.139495	-1.948880	-0.725982	-1.239196	-0.386193	-0.547403	-1.077156	-0.691267	-0.913773	-0.605542	-0.194789	-1.138416	-0.656128	-0.721734	-0.533307	0.257876	-0.581179	-0.349320	-0.483327	-0.261699	-0.155940	0.228831	-1.600720	0.349320	-0.439335	-0.001252	-0.121284	0.184378	-0.938028	0.354577	0.275004	0.773177	0.512348	3.466144
1.000000	-2.060309	-2.052978	-0.825992	-1.227413	-0.315738	-0.384916	-0.910247	-0.800430	-0.909001	-0.643921	-0.337583	-0.830148	-0.753687	-0.806380	-0.580453	-0.141297	-0.202872	-0.471511	-0.606246	-0.412027	-0.253575	0.269081	-2.158410	0.471511	-0.546944	-0.124714	-0.225270	0.211486	-0.928503	0.251395	0.155093	0.679345	0.088315	3.250241
2.000000	-2.189220	-2.201664	-1.069149	-1.339725	-0.379397	-0.386532	-0.839150	-1.027481	-0.947770	-0.770100	-0.566642	-0.596351	-1.003519	-0.726603	-0.674820	-0.652850	0.188095	-0.484771	-0.842327	-0.444508	-0.367456	0.187213	-2.807273	0.484771	-0.744868	-0.201908	-0.370522	0.180965	-0.852731	0.132270	0.012980	0.485059	-0.294776	3.190819
3.000000	-2.328117	-2.236187	-1.250926	-1.317943	-0.359359	-0.377384	-0.825286	-1.190867	-0.888337	-0.746389	-0.488860	-0.508881	-1.207108	-0.472942	-0.594977	-0.571309	0.372689	-0.419631	-1.009878	-0.299056	-0.317021	0.190526	-3.240532	0.419631	-0.888724	-0.138994	-0.356470	0.224026	-0.624623	0.125413	-0.005749	0.379490	-0.532951	3.175436
4.000000	-2.346573	-2.137178	-1.257248	-1.192589	-0.289750	-0.340893	-0.819328	-1.191607	-0.820803	-0.627706	-0.183004	-0.535107	-1.233294	-0.346985	-0.416975	-0.011171	0.229731	-0.370948	-1.016385	-0.207273	-0.185110	0.271585	-3.254178	0.370948	-0.900351	-0.062215	-0.244715	0.304053	-0.326339	0.173556	0.062356	0.401980	-0.615178	3.204804
5.000000	-2.340616	-2.042668	-1.173821	-1.207879	-0.381956	-0.429489	-0.887500	-1.114818	-0.980827	-0.667675	-0.079447	-0.665834	-1.159810	-0.684746	-0.408739	0.337407	-0.154844	-0.387963	-0.964620	-0.436300	-0.199175	0.214103	-2.793769	0.387963	-0.867785	-0.178914	-0.254803	0.257332	-0.141077	0.114012	0.070575	0.438196	-0.574979	3.443605
6.000000	-2.420442	-2.007519	-1.149827	-1.448574	-0.657392	-0.605943	-0.965100	-1.108224	-1.378202	-0.908099	-0.272499	-0.812116	-1.144556	-1.396112	-0.620547	0.163499	-0.626163	-0.401087	-0.994915	-0.924320	-0.402477	-0.017373	-1.946508	0.401087	-0.918627	-0.510625	-0.424186	0.069572	-0.114004	-0.088608	-0.036561	0.388970	-0.394122	3.891689
7.000000	-2.552947	-1.946719	-1.226777	-1.744785	-0.960959	-0.775233	-0.969263	-1.204781	-1.718301	-1.145371	-0.474838	-0.931563	-1.222433	-1.968055	-0.843345	-0.140427	-1.022105	-0.423375	-1.123138	-1.324644	-0.591596	-0.158814	-0.928507	0.423375	-1.051333	-0.832498	-0.576453	-0.057178	-0.107716	-0.286333	-0.140089	0.322072	-0.218472	4.306978
8.000000	-2.611094	-1.824239	-1.303412	-1.861272	-1.141964	-0.912039	-0.867910	-1.304812	-1.760132	-1.220179	-0.508614	-0.947839	-1.297142	-2.050778	-0.880385	-0.166894	-1.160052	-0.529954	-1.223237	-1.378650	-0.571428	-0.002848	0.045928	0.529954	-1.148285	-0.910729	-0.545732	0.054200	0.013030	-0.325340	-0.104300	0.348594	-0.281301	4.446075
9.000000	-2.584143	-1.671673	-1.307964	-1.804237	-1.198794	-0.997296	-0.671891	-1.333727	-1.598595	-1.175225	-0.459721	-0.816764	-1.307243	-1.797942	-0.757401	-0.109242	-1.231336	-0.601853	-1.210153	-1.148738	-0.395365	0.328646	0.689363	0.601853	-1.135500	-0.748910	-0.363084	0.327793	0.157856	-0.209082	0.028719	0.418199	-0.445428	4.356886
10.000000	-2.604782	-1.580772	-1.261412	-1.764122	-1.243363	-1.063809	-0.526622	-1.293552	-1.462355	-1.126711	-0.385033	-0.676517	-1.258747	-1.531176	-0.622236	-0.166159	-1.450616	-0.544834	-1.118585	-0.862020	-0.222299	0.621863	0.805732	0.544834	-1.034719	-0.508042	-0.182744	0.583429	0.176288	-0.017533	0.179267	0.482092	-0.501808	4.232334
11.000000	-2.777336	-1.635849	-1.246218	-1.819810	-1.321034	-1.149423	-0.563164	-1.259599	-1.427129	-1.116656	-0.242788	-0.634145	-1.223152	-1.372831	-0.561204	-0.181711	-1.394002	-0.432256	-1.051993	-0.649752	-0.127279	0.739102	0.536993	0.432256	-0.953346	-0.327215	-0.089174	0.703213	0.096965	0.173496	0.335774	0.603664	-0.511098	4.089568
12.000000	-2.994199	-1.712470	-1.258067	-1.851523	-1.347775	-1.154923	-0.655385	-1.245199	-1.400456	-1.085308	-0.082142	-0.620060	-1.215787	-1.275243	-0.538279	-0.047082	-0.739787	-0.264458	-1.052108	-0.531293	-0.084003	0.740138	0.152577	0.264458	-0.961606	-0.248040	-0.028863	0.736646	0.033154	0.328847	0.491519	0.794416	-0.540748	3.917247
13.000000	-3.028503	-1.661081	-1.189832	-1.726062	-1.239718	-0.957489	-0.550936	-1.173380	-1.294874	-0.986122	-0.015390	-0.441918	-1.156223	-1.185496	-0.489607	0.063268	0.179146	0.013579	-1.054191	-0.473867	-0.054005	0.767160	-0.202563	-0.013579	-0.993776	-0.225584	0.047760	0.793667	0.028582	0.427575	0.598383	0.952049	-0.492170	3.834859
14.000000	-2.803580	-1.471256	-1.004396	-1.415048	-0.972398	-0.596321	-0.219203	-1.004042	-1.069351	-0.797437	0.033502	-0.018892	-0.993035	-0.998586	-0.370143	0.041117	0.983662	0.332576	-0.978686	-0.367086	0.009858	0.802671	-0.537992	-0.332576	-0.933247	-0.182895	0.144341	0.857776	0.057134	0.464627	0.638267	1.041562	-0.311053	3.930038
15.000000	-2.446110	-1.165900	-0.805781	-1.049845	-0.600711	-0.245288	0.162290	-0.807673	-0.773203	-0.532886	0.180321	0.494248	-0.801849	-0.653565	-0.184916	0.057652	1.561323	0.471294	-0.835546	-0.153646	0.136566	0.782888	-0.819834	-0.471294	-0.789230	-0.070166	0.272608	0.877954	0.137905	0.506623	0.663606	1.122932	-0.170404	4.141704
16.000000	-2.191941	-0.899454	-0.750870	-0.859312	-0.310946	-0.082910	0.364669	-0.736080	-0.573820	-0.347242	0.267777	0.843268	-0.738364	-0.307118	-0.066541	0.037037	1.780346	0.292204	-0.745194	0.065115	0.201553	0.608457	-0.968053	-0.292204	-0.706959	0.062888	0.349378	0.793742	0.276179	0.537082	0.641144	1.136722	-0.237169	4.265614
17.000000	-2.123820	-0.795202	-0.829549	-0.845379	-0.190503	-0.110362	0.314251	-0.794165	-0.516023	-0.304697	0.193699	0.910607	-0.803843	-0.098434	-0.062136	-0.162431	1.560099	-0.056065	-0.735988	0.213101	0.157785	0.297205	-0.951129	0.056065	-0.704973	0.162541	0.331427	0.631547	0.413645	0.502911	0.563549	1.061800	-0.476484	4.095195
18.000000	-2.138032	-0.802689	-0.925814	-0.882248	-0.170549	-0.232120	0.103151	-0.883168	-0.549872	-0.328235	0.097329	0.730542	-0.894205	-0.098724	-0.097874	-0.306645	1.082715	-0.374190	-0.758253	0.229516	0.087058	0.027040	-0.742935	0.374190	-0.714623	0.195841	0.271767	0.494308	0.497993	0.424857	0.493382	0.971170	-0.737891	3.667785
19.000000	-2.188223	-0.927260	-1.003220	-0.975700	-0.235402	-0.425421	-0.253553	-0.967979	-0.701022	-0.417208	0.042450	0.305666	-0.971506	-0.365416	-0.193364	-0.203824	0.595974	-0.585497	-0.815871	0.026381	-0.016969	-0.108065	-0.415428	0.585497	-0.758287	0.096837	0.168922	0.393986	0.491173	0.305800	0.410385	0.846590	-0.850275	3.264087
20.000000	-2.296343	-1.173342	-1.079092	-1.137912	-0.396609	-0.663172	-0.705175	-1.046447	-0.936393	-0.583515	-0.048324	-0.235245	-1.045063	-0.767702	-0.373855	-0.028695	0.209662	-0.666875	-0.903632	-0.317041	-0.163617	-0.142492	-0.057491	0.666875	-0.848232	-0.123026	0.036192	0.314373	0.425079	0.151451	0.300687	0.669976	-0.756008	3.115498
21.000000	-2.416366	-1.367486	-1.123424	-1.278467	-0.594656	-0.909123	-0.998402	-1.096485	-1.101445	-0.759382	-0.227577	-0.550940	-1.091512	-1.060713	-0.545344	-0.035301	-0.031869	-0.617910	-0.963582	-0.579435	-0.280422	-0.090106	0.235992	0.617910	-0.925696	-0.332796	-0.058510	0.286526	0.350688	0.008029	0.209094	0.486720	-0.529732	3.204727
22.000000	-2.455165	-1.373450	-1.080574	-1.315948	-0.741138	-1.108252	-0.975627	-1.071671	-1.119460	-0.858695	-0.406439	-0.537626	-1.057872	-1.121870	-0.607645	-0.111780	-0.115428	-0.450921	-0.935529	-0.647918	-0.290797	0.171364	0.300439	0.450921	-0.931014	-0.421190	-0.054304	0.370567	0.241600	-0.082416	0.164925	0.339904	-0.256660	3.425523
23.000000	-2.404818	-1.334968	-0.977710	-1.276556	-0.815763	-1.229776	-0.826142	-0.981162	-1.058877	-0.885506	-0.491199	-0.476383	-0.963670	-1.031481	-0.574179	0.009007	-0.265974	-0.199000	-0.848364	-0.597843	-0.204795	0.724651	0.062868	0.199000	-0.874395	-0.409076	0.031735	0.584249	0.062739	-0.123771	0.142308	0.224296	-0.052132	3.697066
24.000000	-2.314178	-1.416149	-0.849361	-1.170241	-0.820891	-1.254664	-0.699503	-0.853333	-0.929056	-0.854740	-0.470716	-0.490896	-0.835038	-0.865554	-0.494957	0.297634	-0.583756	0.092452	-0.728852	-0.490522	-0.067599	1.327730	-0.305102	-0.092452	-0.767209	-0.335942	0.151302	0.864120	-0.091196	-0.102434	0.136421	0.142832	-0.023091	3.935183
25.000000	-2.289847	-1.645270	-0.752056	-1.056747	-0.824177	-1.214711	-0.718975	-0.748279	-0.757090	-0.792637	-0.403802	-0.608372	-0.718271	-0.666437	-0.435180	0.545331	-0.846153	0.384851	-0.616321	-0.363897	0.028635	1.454719	-0.642358	-0.384851	-0.647106	-0.249088	0.230784	0.992357	-0.148136	-0.044575	0.128155	0.067894	-0.076691	4.123778
26.000000	-2.400706	-1.962943	-0.736205	-1.033980	-0.894927	-1.194801	-0.953993	-0.719137	-0.647494	-0.764626	-0.389877	-0.843320	-0.671944	-0.504545	-0.451711	0.611759	-0.942318	0.580674	-0.578361	-0.271107	0.016580	0.946382	-1.075884	-0.580674	-0.593791	-0.209117	0.197825	0.782944	-0.191449	-0.038585	0.055964	-0.041820	-0.005551	4.172228
27.000000	-2.551593	-2.239548	-0.745706	-1.054683	-0.960602	-1.154325	-1.126163	-0.716350	-0.612260	-0.754698	-0.439427	-0.920643	-0.660593	-0.355416	-0.498998	0.427178	-0.899575	0.591190	-0.576026	-0.158668	-0.028596	0.232561	-1.683866	-0.591190	-0.585276	-0.172037	0.101761	0.392925	-0.274773	-0.079812	-0.035052	-0.116559	0.124011	3.992564
28.000000	-2.637815	-2.402333	-0.713111	-1.043776	-0.930877	-1.058079	-1.135217	-0.672659	-0.580564	-0.695762	-0.404624	-0.772714	-0.627639	-0.154218	-0.465298	0.235710	-0.684048	0.505862	-0.534391	0.052028	0.005803	-0.157987	-2.215809	-0.505862	-0.533513	-0.026489	0.065464	0.140043	-0.379041	-0.059084	-0.025743	-0.088095	0.181424	3.762058
29.000000	-2.597862	-2.413248	-0.585673	-0.932246	-0.727701	-0.904768	-1.157652	-0.532151	-0.442925	-0.512258	-0.072423	-0.691063	-0.516925	0.090258	-0.256811	0.523210	-0.232423	0.481153	-0.416050	0.357320	0.193616	0.038539	-2.318285	-0.481153	-0.395136	0.298666	0.193479	0.174238	-0.466690	0.097681	0.126204	0.025108	0.276655	3.661724
30.000000	-2.451469	-2.269236	-0.374989	-0.685634	-0.374699	-0.706950	-1.246936	-0.317481	-0.187130	-0.228526	0.434434	-0.807936	-0.331300	0.246760	0.067782	1.296123	0.293181	0.481793	-0.237400	0.586669	0.471803	0.652920	-1.875941	-0.481793	-0.202333	0.632096	0.428643	0.448849	-0.491132	0.274013	0.313287	0.158598	0.356047	3.661824
31.000000	-2.404321	-2.145389	-0.258558	-0.528199	-0.140224	-0.618314	-1.416266	-0.202457	-0.063730	-0.084707	0.633963	-1.030855	-0.229655	0.115978	0.206780	1.804907	0.517177	0.374946	-0.125161	0.458539	0.565622	1.084337	-1.183433	-0.374946	-0.081313	0.594436	0.488161	0.716685	-0.559097	0.259169	0.321007	0.178635	0.248259	3.662456
32.000000	-2.534696	-2.155608	-0.298456	-0.637374	-0.174267	-0.714709	-1.684711	-0.237419	-0.248809	-0.205033	0.409284	-1.289959	-0.259992	-0.280133	0.014474	1.455909	0.293151	0.235602	-0.123059	0.022940	0.356484	0.928527	-0.723381	-0.235602	-0.073409	0.201484	0.285437	0.811070	-0.793000	0.105971	0.150917	0.078840	0.072644	3.621196
33.000000	-2.616092	-2.129834	-0.303700	-0.794861	-0.266406	-0.854127	-1.861975	-0.240541	-0.535965	-0.378422	0.108589	-1.434512	-0.242315	-0.654927	-0.251384	0.623458	-0.118835	0.193810	-0.085285	-0.347929	0.096935	0.521756	-0.574049	-0.193809	-0.036304	-0.127613	0.082252	0.854648	-0.967190	0.050584	0.037981	0.052873	-0.018944	3.552359
34.000000	-2.542994	-1.983093	-0.236606	-0.835162	-0.264819	-0.943913	-1.721658	-0.171966	-0.721150	-0.465396	-0.204688	-1.269600	-0.150025	-0.859993	-0.429101	-0.233485	-0.482548	0.195283	0.001135	-0.511003	-0.071578	0.207203	-0.469689	-0.195283	0.050253	-0.243325	-0.033355	0.703199	-0.831978	0.117312	0.021418	0.143412	0.028139	3.522266
35.000000	-2.379262	-1.854256	-0.151435	-0.777948	-0.198579	-1.003866	-1.443428	-0.096549	-0.746943	-0.473005	-0.579917	-1.006233	-0.057511	-0.879798	-0.522241	-0.940638	-0.840445	0.177711	0.081253	-0.512817	-0.160141	0.048449	-0.372134	-0.177711	0.115385	-0.217716	-0.095971	0.316853	-0.468107	0.238632	0.050950	0.266110	0.373083	3.621461
36.000000	-2.104172	-1.795423	0.011639	-0.585676	-0.056517	-1.020891	-1.296851	0.037729	-0.567430	-0.355699	-0.765081	-0.932764	0.089803	-0.680821	-0.443390	-1.194275	-1.147845	0.175170	0.218786	-0.326787	-0.086291	0.070931	-0.327383	-0.175170	0.215759	-0.038962	-0.007065	0.169532	-0.126965	0.406811	0.149206	0.379876	0.995615	3.848863
37.000000	-1.776223	-1.745079	0.211538	-0.305364	0.111200	-0.997786	-1.238500	0.215782	-0.285422	-0.174950	-0.739154	-0.944737	0.283586	-0.325393	-0.226722	-1.126191	-1.321969	0.227843	0.387509	-0.017299	0.102431	0.060735	-0.292005	-0.227843	0.361624	0.233413	0.177820	0.388122	-0.007117	0.554322	0.225053	0.404166	1.555889	4.093903
38.000000	-1.524536	-1.710222	0.340540	-0.083478	0.183078	-0.982345	-1.230118	0.332629	-0.065735	-0.071671	-0.748352	-0.952517	0.413071	0.107096	-0.053791	-1.141650	-1.501803	0.329770	0.483065	0.294939	0.230026	-0.148729	-0.176189	-0.329770	0.461194	0.443481	0.267109	0.527315	-0.066497	0.573957	0.167171	0.232022	1.859706	4.269998
39.000000	-1.337186	-1.707639	0.348262	0.029265	0.153624	-0.978004	-1.325583	0.324670	0.086661	-0.048032	-0.788282	-1.062447	0.403036	0.606225	0.009029	-1.121247	-1.797427	0.395145	0.457912	0.613974	0.247532	-0.453286	0.202704	-0.395145	0.445487	0.551070	0.219644	0.208329	-0.115301	0.439416	-0.014725	-0.122280	1.957403	4.340994
40.000000	-1.209450	-1.702086	0.233053	0.030359	0.039091	-0.981385	-1.435259	0.197893	0.166024	-0.084451	-0.747526	-1.227088	0.265597	0.994786	-0.027924	-0.862492	-2.077711	0.397593	0.324152	0.840791	0.174327	-0.712364	0.796492	-0.397593	0.309568	0.559420	0.089830	-0.373538	-0.107247	0.216157	-0.245790	-0.483221	1.893156	4.314774
41.000000	-1.222015	-1.690697	0.070131	-0.109250	-0.194560	-1.014385	-1.437760	0.039005	0.051661	-0.254673	-0.710299	-1.247693	0.088210	0.906394	-0.204205	-0.663643	-1.951168	0.416623	0.147364	0.732294	-0.014518	-0.909793	1.358264	-0.416623	0.125670	0.404463	-0.108433	-0.789963	-0.080987	-0.002994	-0.435291	-0.687333	1.646723	4.202136
42.000000	-1.367863	-1.740304	-0.041275	-0.324584	-0.496371	-1.073510	-1.375082	-0.061119	-0.203863	-0.534919	-0.769661	-1.090501	-0.035410	0.376116	-0.486741	-0.852849	-1.240312	0.428020	0.009717	0.324372	-0.260215	-1.069563	1.704407	-0.428020	-0.012914	0.140411	-0.323961	-0.906460	-0.016018	-0.121048	-0.494283	-0.682900	1.194012	3.892438
43.000000	-1.509065	-1.812815	-0.073491	-0.445740	-0.717462	-1.102150	-1.249111	-0.074637	-0.324259	-0.750003	-0.907339	-0.802416	-0.060926	-0.069347	-0.710210	-1.253316	-0.257621	0.363984	-0.034779	-0.007246	-0.402068	-1.146746	1.705377	-0.363984	-0.052206	-0.020935	-0.418245	-0.785572	0.086809	-0.076639	-0.368016	-0.483475	0.619683	3.404772
44.000000	-1.528165	-1.779547	-0.041104	-0.416101	-0.753806	-1.044886	-1.013582	-0.004328	-0.190969	-0.761479	-0.997665	-0.443745	0.003865	-0.111313	-0.733952	-1.380934	0.598711	0.273050	0.026307	-0.002081	-0.326430	-1.031350	1.404377	-0.273050	0.026758	0.054470	-0.289993	-0.479079	0.214735	0.158454	-0.057389	-0.120427	0.099956	3.018667
45.000000	-1.486525	-1.738335	0.013147	-0.396850	-0.686022	-0.956786	-0.820745	0.084140	-0.009152	-0.647925	-0.939987	-0.197552	0.082041	0.070869	-0.614447	-1.136503	1.015001	0.229798	0.113404	0.198167	-0.122483	-0.735083	0.957554	-0.229798	0.139564	0.246904	-0.048610	-0.103635	0.358556	0.481368	0.305456	0.295228	-0.204260	2.893745
46.000000	-1.551140	-1.876441	0.033902	-0.515173	-0.672419	-0.918562	-0.805575	0.108582	-0.017687	-0.612926	-0.891209	-0.141088	0.100398	0.162702	-0.544482	-0.968549	0.830609	0.271971	0.135273	0.305429	-0.014247	-0.506575	0.446252	-0.271971	0.173766	0.347439	0.080744	0.112583	0.441534	0.675742	0.504359	0.565728	-0.278567	2.937621
47.000000	-1.791347	-2.208498	-0.003771	-0.743297	-0.747225	-0.970375	-0.965960	0.051689	-0.250926	-0.726506	-0.986149	-0.227535	0.047126	0.060396	-0.619626	-1.117346	0.241375	0.330295	0.083817	0.231467	-0.087975	-0.505408	-0.097138	-0.330295	0.119759	0.290306	0.028787	0.066751	0.351535	0.645128	0.456170	0.585380	-0.184389	3.024443
48.000000	-2.136642	-2.647684	-0.085358	-0.986627	-0.862220	-1.164494	-1.327361	-0.050697	-0.558386	-0.915096	-1.164637	-0.527018	-0.047454	-0.127829	-0.791208	-1.344671	-0.411672	0.296710	-0.014221	0.058952	-0.274143	-0.644879	-0.636670	-0.296710	0.015334	0.119356	-0.129612	-0.168891	0.034672	0.441689	0.234285	0.394873	0.105667	3.116957
49.000000	-2.414316	-2.996055	-0.101409	-1.079138	-0.930838	-1.409001	-1.831054	-0.082062	-0.711482	-1.048532	-1.303517	-1.042631	-0.070134	-0.241159	-0.926375	-1.385349	-0.938794	0.248648	-0.057242	-0.093816	-0.445470	-0.770155	-1.101643	-0.248648	-0.042065	-0.054132	-0.281976	-0.420958	-0.510436	0.218696	-0.022612	0.093288	0.679178	3.283182
50.000000	-2.482384	-3.055277	-0.015834	-0.938950	-0.850154	-1.498992	-2.229501	0.001215	-0.624496	-1.030058	-1.267763	-1.529382	0.011902	-0.222670	-0.893286	-1.142607	-1.289112	0.285263	0.005307	-0.154678	-0.470767	-0.715628	-1.370399	-0.285263	-0.001510	-0.131014	-0.330889	-0.416053	-1.165875	0.096038	-0.196907	-0.196538	1.467673	3.562150
51.000000	-2.351536	-2.867415	0.111701	-0.684658	-0.649558	-1.397969	-2.342547	0.136092	-0.444397	-0.910577	-1.092422	-1.813116	0.130310	-0.144546	-0.733580	-0.762356	-1.552637	0.373173	0.112087	-0.153179	-0.361793	-0.404146	-1.440554	-0.373173	0.096321	-0.130736	-0.283217	-0.079849	-1.643542	0.033471	-0.291910	-0.385874	2.151883	3.865260
52.000000	-2.023252	-2.518697	0.326391	-0.393167	-0.367889	-1.109004	-2.077698	0.359187	-0.237638	-0.723677	-0.855563	-1.721894	0.340571	0.016919	-0.538294	-0.484608	-1.506547	0.458541	0.300267	-0.049159	-0.189685	0.021930	-1.362946	-0.458541	0.300194	-0.022247	-0.167655	0.215511	-1.642760	0.049342	-0.279016	-0.387375	2.376191	4.055118
53.000000	-1.581392	-2.101197	0.578909	-0.122880	-0.064008	-0.685661	-1.495438	0.620303	-0.008589	-0.489016	-0.585314	-1.174158	0.597660	0.296020	-0.348344	-0.378702	-1.025373	0.482182	0.547740	0.213496	-0.007931	0.305838	-1.262954	-0.482182	0.579076	0.240356	-0.015724	0.161655	-1.190171	0.202011	-0.121929	-0.185894	2.068366	4.073967
54.000000	-1.254267	-1.794200	0.676733	-0.028495	0.066310	-0.397142	-1.019456	0.707285	0.079276	-0.339257	-0.361600	-0.617111	0.682021	0.565084	-0.248268	-0.309297	-0.693967	0.428303	0.665303	0.535048	0.089644	0.347711	-1.423980	-0.428303	0.720066	0.561087	0.076857	-0.052977	-0.671508	0.369633	0.020916	0.006833	1.530788	4.015651
55.000000	-1.138460	-1.638324	0.585722	-0.132154	-0.038424	-0.388468	-0.872643	0.597311	-0.015880	-0.328179	-0.227322	-0.410742	0.573997	0.724936	-0.273641	-0.107358	-0.688382	0.327790	0.609476	0.760361	0.057586	0.219046	-1.792230	-0.327790	0.658363	0.737839	0.026115	-0.202910	-0.352484	0.394779	0.000014	-0.013793	1.105054	3.972772
56.000000	-1.173247	-1.597998	0.465879	-0.313108	-0.293049	-0.581373	-0.864860	0.472007	-0.166693	-0.428005	-0.260859	-0.483035	0.456213	0.695098	-0.411889	0.080783	-0.680740	0.182369	0.521143	0.709999	-0.106662	-0.013126	-2.012733	-0.182369	0.552270	0.574156	-0.187622	-0.292307	-0.254018	0.229507	-0.171940	-0.233338	0.981059	4.002569
57.000000	-1.318089	-1.694351	0.363380	-0.532022	-0.665900	-0.917472	-0.945391	0.370707	-0.369149	-0.659899	-0.533206	-0.729913	0.369624	0.358750	-0.690051	-0.040336	-0.721836	-0.027794	0.418268	0.295595	-0.423468	-0.325618	-1.963940	0.027795	0.438755	0.096204	-0.553140	-0.404281	-0.355495	-0.100893	-0.451251	-0.561719	1.107019	4.173190
58.000000	-1.623550	-1.913668	0.143473	-0.841220	-1.153748	-1.412086	-1.205494	0.155830	-0.680645	-1.048239	-1.033684	-1.052089	0.165804	-0.240284	-1.128190	-0.516144	-0.950646	-0.278308	0.164672	-0.373095	-0.887356	-0.749621	-1.760812	0.278308	0.178262	-0.517748	-1.046620	-0.654770	-0.643120	-0.525002	-0.790771	-0.897893	1.223507	4.430957
59.000000	-2.116405	-2.215959	-0.193789	-1.222120	-1.674293	-2.020633	-1.632275	-0.176147	-1.012884	-1.496682	-1.611787	-1.452502	-0.169502	-0.810518	-1.604872	-1.048539	-1.228469	-0.485143	-0.225960	-1.027828	-1.372531	-1.185620	-1.496163	0.485143	-0.218429	-1.069108	-1.536902	-0.998260	-1.034473	-0.912223	-1.075262	-1.074706	1.158259	4.622538
60.000000	-2.637032	-2.524721	-0.417140	-1.493850	-2.001412	-2.467159	-2.015917	-0.398481	-1.144017	-1.757939	-1.920543	-1.846308	-0.396300	-1.017596	-1.858620	-1.236494	-1.308324	-0.565234	-0.487003	-1.330939	-1.637982	-1.377950	-1.145836	0.565234	-0.494741	-1.316706	-1.777241	-1.180498	-1.298654	-1.089970	-1.128795	-0.941370	0.903160	4.674032
61.000000	-2.875033	-2.641506	-0.296057	-1.443881	-1.939782	-2.471627	-2.054936	-0.273130	-0.924553	-1.663550	-1.805194	-1.924787	-0.270312	-0.763890	-1.758146	-1.094772	-1.069808	-0.446245	-0.363466	-1.150486	-1.549037	-1.262423	-0.738668	0.446245	-0.387425	-1.142970	-1.638368	-1.057175	-1.257056	-0.936242	-0.852720	-0.473083	0.547850	4.673185
62.000000	-2.737270	-2.543363	0.117884	-1.128304	-1.569036	-2.119950	-1.741518	0.148478	-0.504267	-1.310217	-1.435987	-1.582916	0.156954	-0.272083	-1.413248	-0.858681	-0.567018	-0.168762	0.076710	-0.685093	-1.219708	-0.954260	-0.351817	0.168762	0.051996	-0.702319	-1.245922	-0.687490	-0.924746	-0.501295	-0.331704	0.248580	0.266339	4.712082
63.000000	-2.473590	-2.411318	0.502765	-0.826460	-1.147756	-1.753629	-1.366771	0.537663	-0.183883	-0.938889	-1.054662	-1.083230	0.549515	0.165094	-1.035913	-0.661100	-0.027787	0.066747	0.501997	-0.214485	-0.869450	-0.642949	-0.077938	-0.066747	0.490237	-0.250267	-0.834439	-0.257469	-0.452579	-0.016822	0.217583	1.020486	0.153041	4.630820
64.000000	-2.361903	-2.334398	0.600851	-0.758161	-0.917171	-1.596677	-1.222117	0.648749	-0.132116	-0.765220	-0.852462	-0.831532	0.649967	0.385919	-0.840869	-0.643191	0.177784	0.139806	0.669738	0.068736	-0.687785	-0.571022	-0.103274	-0.139806	0.678513	0.018736	-0.618984	-0.035817	-0.110584	0.246462	0.512832	1.500950	0.136415	4.249376
65.000000	-2.461375	-2.297189	0.429975	-0.968440	-0.955112	-1.599811	-1.293669	0.491217	-0.369648	-0.859124	-0.900027	-0.861217	0.483393	0.247844	-0.930772	-0.899534	-0.025341	0.101839	0.573954	0.037766	-0.763531	-0.767058	-0.414132	-0.101839	0.607207	0.009300	-0.683698	-0.113359	-0.057921	0.195105	0.446277	1.510714	0.212988	3.742457
66.000000	-2.639726	-2.221145	0.195291	-1.275687	-1.101228	-1.619994	-1.360552	0.257339	-0.761839	-1.070207	-1.055113	-0.903368	0.243184	-0.234926	-1.188590	-1.310395	-0.310818	-0.001069	0.366657	-0.264701	-0.990940	-1.011966	-0.610106	0.001069	0.428420	-0.200060	-0.893172	-0.299292	-0.187507	-0.027584	0.188450	1.232406	0.365689	3.402948
67.000000	-2.720691	-2.047293	0.099858	-1.418881	-1.152920	-1.596229	-1.379612	0.162195	-1.039653	-1.192414	-1.090951	-0.900871	0.131560	-0.714413	-1.384745	-1.510664	-0.457389	-0.108201	0.248283	-0.581737	-1.163633	-1.102149	-0.349085	0.108201	0.325821	-0.422836	-1.037164	-0.391867	-0.354867	-0.235270	-0.074152	0.907332	0.455318	3.354375
68.000000	-2.618464	-1.773757	0.176375	-1.320018	-1.057997	-1.512948	-1.317601	0.230415	-1.043847	-1.161237	-1.019739	-0.845818	0.188050	-0.891275	-1.415416	-1.353965	-0.497325	-0.121611	0.274321	-0.718311	-1.197277	-1.028529	0.177413	0.121612	0.338883	-0.528301	-1.035861	-0.380650	-0.481271	-0.339369	-0.253599	0.629026	0.455007	3.513207
69.000000	-2.413624	-1.534093	0.262352	-1.129105	-0.932826	-1.436595	-1.218954	0.296520	-0.896096	-1.056196	-1.000719	-0.792022	0.257635	-0.827160	-1.358241	-1.079146	-0.589451	-0.051100	0.311009	-0.718808	-1.160471	-0.904942	0.485209	0.051100	0.345466	-0.535413	-0.968358	-0.349487	-0.533294	-0.365561	-0.343261	0.421006	0.494128	3.687293
70.000000	-2.244061	-1.531457	0.240015	-1.038408	-0.915244	-1.476643	-1.369693	0.263799	-0.800423	-1.003541	-1.052494	-1.013523	0.237046	-0.697582	-1.320900	-0.827114	-1.055307	0.031483	0.278153	-0.672965	-1.127257	-0.779292	0.187073	-0.031483	0.282629	-0.523535	-0.926735	-0.334563	-0.624538	-0.360438	-0.375605	0.295715	0.728332	3.830045
71.000000	-2.213145	-1.858457	0.142725	-1.123424	-1.038730	-1.647487	-1.838312	0.162105	-0.818240	-1.065872	-1.153853	-1.555312	0.159195	-0.560763	-1.341409	-0.622912	-1.894281	0.121518	0.194777	-0.593006	-1.136986	-0.650773	-0.741148	-0.121518	0.203799	-0.512110	-0.924910	-0.313609	-0.850589	-0.301001	-0.340615	0.282327	1.120572	3.951973
72.000000	-2.377110	-2.481273	-0.001229	-1.379815	-1.318301	-1.942407	-2.344366	0.005827	-0.959791	-1.268656	-1.411979	-2.098231	0.028444	-0.540307	-1.474014	-0.720496	-2.514688	0.257005	0.056858	-0.581106	-1.264153	-0.667740	-1.855468	-0.257005	0.109842	-0.550641	-1.003582	-0.353063	-1.120464	-0.203423	-0.255180	0.367577	1.409200	3.975421
73.000000	-2.676128	-3.233652	-0.165283	-1.727467	-1.700570	-2.274859	-2.625153	-0.169873	-1.218411	-1.596931	-1.861940	-2.357470	-0.140988	-0.776923	-1.747610	-1.319305	-2.567145	0.389858	-0.106965	-0.761290	-1.514335	-0.949416	-2.689001	-0.389858	-0.027390	-0.694082	-1.191261	-0.521753	-1.300111	-0.123080	-0.174473	0.487371	1.418024	3.928022
74.000000	-2.962797	-3.823371	-0.280335	-2.011325	-2.019472	-2.480543	-2.633483	-0.288327	-1.468760	-1.911496	-2.315434	-2.278833	-0.268987	-1.122126	-2.029714	-2.137174	-2.215398	0.412032	-0.230270	-1.026714	-1.739651	-1.310704	-3.073689	-0.412032	-0.152322	-0.861770	-1.383486	-0.705130	-1.336466	-0.071786	-0.121764	0.563120	1.187089	3.939169
75.000000	-3.169224	-4.077397	-0.349426	-2.155532	-2.205151	-2.557098	-2.490983	-0.350983	-1.604191	-2.097586	-2.586022	-2.020463	-0.345383	-1.351263	-2.199797	-2.677049	-1.752237	0.301325	-0.309954	-1.223845	-1.855207	-1.533402	-3.101399	-0.301325	-0.233046	-0.970851	-1.512402	-0.829536	-1.304707	-0.088974	-0.148118	0.500545	0.831637	4.056670
76.000000	-3.274977	-4.060316	-0.382826	-2.152464	-2.260425	-2.525946	-2.302990	-0.374687	-1.601444	-2.138506	-2.588227	-1.746050	-0.388479	-1.393247	-2.236750	-2.676759	-1.342233	0.150722	-0.354775	-1.301595	-1.872822	-1.557993	-2.910522	-0.150722	-0.278713	-1.002526	-1.572734	-0.889215	-1.253266	-0.139442	-0.223082	0.343335	0.458295	4.229371
77.000000	-3.265288	-3.859332	-0.318846	-2.011084	-2.196654	-2.379597	-2.114828	-0.308250	-1.452838	-2.061911	-2.375334	-1.522179	-0.342016	-1.254878	-2.157729	-2.295835	-1.076833	0.056472	-0.313340	-1.235774	-1.806356	-1.472084	-2.646257	-0.056472	-0.244888	-0.943913	-1.555027	-0.888672	-1.179746	-0.118713	-0.245604	0.227970	0.163863	4.397297
78.000000	-3.181370	-3.514735	-0.148090	-1.814717	-2.045252	-2.174223	-1.940619	-0.143337	-1.215677	-1.913776	-2.062785	-1.383406	-0.177272	-1.018924	-2.006165	-1.766680	-1.092110	0.022283	-0.149261	-1.066829	-1.680197	-1.319763	-2.490235	-0.022283	-0.096096	-0.808152	-1.467922	-0.840872	-1.105489	-0.013537	-0.215487	0.208272	-0.023145	4.500753
79.000000	-3.147306	-3.170655	-0.029824	-1.727992	-1.886356	-2.010357	-1.850437	-0.030061	-1.077894	-1.780872	-1.726849	-1.415371	-0.055672	-0.886191	-1.877312	-1.143091	-1.402964	0.026065	-0.008700	-0.955651	-1.567838	-1.066736	-2.464975	-0.026065	0.031747	-0.696344	-1.383929	-0.740823	-1.029575	0.070732	-0.224441	0.248369	-0.069818	4.484957
80.000000	-3.224618	-2.992012	-0.068843	-1.794820	-1.814093	-1.957158	-1.917822	-0.069148	-1.143857	-1.738739	-1.513078	-1.630465	-0.099946	-0.967512	-1.859118	-0.668786	-1.764634	0.050691	-0.033941	-1.014837	-1.560989	-0.909116	-2.368148	-0.050690	0.004085	-0.725255	-1.414108	-0.692361	-0.968263	0.010124	-0.344346	0.280188	0.112402	4.372733
81.000000	-3.230932	-2.943536	-0.123902	-1.815628	-1.759136	-1.917607	-1.970772	-0.121420	-1.255371	-1.731080	-1.536361	-1.798309	-0.156243	-1.128324	-1.916442	-0.738758	-1.845827	0.053178	-0.098729	-1.142616	-1.646131	-1.078526	-2.042689	-0.053178	-0.052512	-0.859435	-1.566598	-0.819568	-0.954930	-0.170624	-0.549587	0.230225	0.417723	4.222611
82.000000	-3.032217	-2.908012	-0.093186	-1.675221	-1.625695	-1.833442	-1.907355	-0.075214	-1.252558	-1.699136	-1.750621	-1.836035	-0.109654	-1.224157	-1.981304	-1.337864	-1.760081	0.085787	-0.071119	-1.212285	-1.758424	-1.493282	-1.681147	-0.085787	-0.007131	-0.985781	-1.777046	-1.092277	-1.029963	-0.358449	-0.788455	0.042993	0.648713	4.136207
83.000000	-2.672974	-2.745775	0.031763	-1.406186	-1.373061	-1.703882	-1.753671	0.059653	-1.082961	-1.579177	-1.942757	-1.762140	0.023899	-1.163796	-1.948450	-1.960761	-1.743516	0.239120	0.050098	-1.150932	-1.789153	-1.806005	-1.511715	-0.239120	0.136866	-1.002758	-1.906895	-1.291556	-1.127817	-0.468669	-0.969825	-0.176040	0.783787	4.140491
84.000000	-2.287387	-2.470419	0.149110	-1.099535	-1.047817	-1.533967	-1.559677	0.170247	-0.830919	-1.348640	-1.958334	-1.572707	0.130821	-0.946355	-1.781542	-2.238523	-1.732034	0.449102	0.141221	-0.986256	-1.697853	-1.800360	-1.594313	-0.449102	0.250678	-0.931928	-1.886867	-1.232802	-1.206150	-0.553553	-1.066152	-0.307499	0.805635	4.101361
85.000000	-1.932714	-2.202126	0.170611	-0.799006	-0.682837	-1.304612	-1.461509	0.193384	-0.541040	-0.998256	-1.706406	-1.440143	0.144970	-0.556267	-1.466708	-1.966899	-1.687281	0.668275	0.144152	-0.728145	-1.474475	-1.455839	-1.916375	-0.668275	0.257215	-0.799558	-1.712947	-0.843217	-1.331151	-0.649090	-1.091650	-0.288830	0.732841	3.954656
86.000000	-1.565711	-1.877909	0.224084	-0.433071	-0.204247	-0.938973	-1.394465	0.256244	-0.114933	-0.475109	-1.117873	-1.399872	0.210255	0.055592	-0.950291	-1.101748	-1.625288	0.932092	0.203154	-0.308534	-1.053525	-0.827637	-2.272660	-0.932092	0.296984	-0.538245	-1.355583	-0.160409	-1.413144	-0.654473	-1.001066	-0.089387	0.741345	3.771971
87.000000	-1.253339	-1.430010	0.426179	-0.016104	0.331763	-0.499997	-1.154705	0.457128	0.395426	0.107779	-0.404926	-1.201506	0.428701	0.674282	-0.360662	-0.143704	-1.414989	1.113455	0.400273	0.172356	-0.538500	-0.223966	-2.148798	-1.113455	0.467920	-0.195250	-0.937393	0.401339	-1.206285	-0.527785	-0.811605	0.197035	0.833652	3.650991
88.000000	-1.033508	-0.945912	0.746611	0.387917	0.778264	-0.118563	-0.745660	0.753939	0.853848	0.578182	0.149783	-0.786796	0.740637	1.054680	0.116973	0.403047	-1.009303	1.038818	0.672214	0.549793	-0.113520	0.065870	-1.227292	-1.038818	0.719359	0.101337	-0.623097	0.444785	-0.708860	-0.350273	-0.620179	0.436046	0.782276	3.569936
89.000000	-0.874416	-0.595537	1.024442	0.712623	1.070087	0.170140	-0.378394	1.003719	1.185649	0.887318	0.480087	-0.446940	0.987173	1.207734	0.429471	0.553859	-0.694651	0.779414	0.887865	0.766287	0.158587	0.119008	0.047306	-0.779414	0.921256	0.276028	-0.446613	0.161308	-0.277785	-0.261898	-0.549826	0.503192	0.562867	3.489682
90.000000	-0.753486	-0.436690	1.168111	0.915897	1.245043	0.404675	-0.139382	1.137263	1.402396	1.098744	0.679517	-0.236586	1.106362	1.268280	0.662696	0.551959	-0.511799	0.545938	1.006111	0.881020	0.346612	0.211957	1.097136	-0.545938	1.022324	0.385592	-0.307893	0.031112	-0.085478	-0.274019	-0.579785	0.432094	0.360966	3.443062
91.000000	-0.691048	-0.448839	1.230008	0.999668	1.333356	0.569392	0.014309	1.197692	1.555244	1.251142	0.820371	-0.037631	1.161163	1.338377	0.876480	0.518204	-0.278337	0.439742	1.079180	0.961090	0.512589	0.475332	1.477514	-0.439742	1.076586	0.495776	-0.126910	0.303445	-0.088117	-0.342492	-0.626046	0.336684	0.228223	3.339286
92.000000	-0.740218	-0.608636	1.225673	0.942207	1.301709	0.583127	0.081085	1.194857	1.625314	1.306652	0.849847	0.055262	1.158106	1.451778	1.004444	0.466144	-0.146601	0.427909	1.101529	1.013689	0.629568	0.800018	0.766743	-0.427909	1.098362	0.557881	0.021047	0.848279	-0.282211	-0.528660	-0.754511	0.175423	0.095288	3.142167
93.000000	-0.879674	-0.817102	1.114192	0.751373	1.164329	0.445156	0.077580	1.099298	1.581285	1.258973	0.775654	0.034499	1.063420	1.579224	1.005613	0.458633	-0.162683	0.520775	1.032506	1.026247	0.663712	1.000114	-0.639222	-0.520775	1.051423	0.528920	0.027266	1.164272	-0.496099	-0.835313	-1.027811	-0.113280	0.011506	3.035101
94.000000	-1.007358	-0.937805	0.942851	0.578213	1.071625	0.329409	0.117401	0.958890	1.537386	1.218522	0.797485	0.039174	0.928334	1.731854	0.984387	0.685343	-0.125380	0.699966	0.927459	1.041896	0.679224	1.036456	-1.612483	-0.699966	0.957426	0.481074	-0.045096	0.917817	-0.487628	-1.136271	-1.347556	-0.425827	0.049246	3.089455
95.000000	-1.082794	-0.942440	0.806338	0.540344	1.092513	0.297246	0.174946	0.842109	1.534547	1.258621	0.998937	0.070368	0.825019	1.774411	0.999616	1.148560	-0.039554	0.825024	0.845028	1.014009	0.723316	1.000497	-1.526075	-0.825024	0.867752	0.422397	-0.086820	0.451787	-0.296857	-1.366461	-1.618815	-0.660970	0.140837	3.169941
96.000000	-1.235436	-0.988854	0.636946	0.488755	1.055999	0.175209	0.024315	0.668347	1.293385	1.217960	1.133560	0.057477	0.675901	1.310151	0.883304	1.390103	-0.002558	0.847871	0.677291	0.700871	0.644225	0.829216	-0.704287	-0.847871	0.703076	0.175822	-0.200345	0.091499	-0.154049	-1.646616	-1.930931	-0.919002	0.167109	3.164050
97.000000	-1.421561	-1.065707	0.411807	0.376830	0.973576	0.070947	-0.212320	0.432305	0.833265	1.081809	1.120438	0.052999	0.455787	0.488773	0.661710	1.135630	-0.001078	0.813049	0.413239	0.205973	0.460683	0.549302	0.186213	-0.813049	0.449011	-0.202351	-0.387556	-0.114655	-0.078623	-2.013436	-2.297961	-1.224758	0.088114	3.049436
98.000000	-1.364721	-0.945223	0.328391	0.408329	1.075787	0.251950	-0.237269	0.346725	0.594677	1.089440	1.156461	0.095624	0.357837	-0.005314	0.617709	0.682051	-0.060512	0.785140	0.275873	-0.043692	0.428727	0.408249	0.705796	-0.785140	0.314789	-0.402472	-0.446905	-0.067017	0.082071	-2.312090	-2.552192	-1.428408	0.056846	2.918729
99.000000	-1.101459	-0.692701	0.408896	0.548876	1.311863	0.574252	-0.133107	0.419334	0.646054	1.220571	1.196150	0.110512	0.418140	-0.018235	0.737559	0.326927	-0.212134	0.746408	0.313527	-0.001673	0.547744	0.420852	0.730537	-0.746409	0.355535	-0.393920	-0.369794	0.159586	0.354821	-2.521709	-2.682426	-1.499355	0.175637	2.887456
100.000000	-0.885502	-0.523972	0.444459	0.609076	1.496351	0.764116	-0.021459	0.432582	0.757870	1.309979	1.109843	0.135321	0.443969	0.190257	0.865338	0.130137	-0.350882	0.579709	0.342124	0.149809	0.690195	0.427424	0.454336	-0.579709	0.392855	-0.321985	-0.255307	0.362443	0.654225	-2.688923	-2.766988	-1.457083	0.379193	2.935546
101.000000	-0.831973	-0.474254	0.358004	0.582815	1.608051	0.760425	0.090899	0.334711	0.884462	1.383397	0.995152	0.185345	0.362903	0.591976	1.033280	0.179315	-0.501385	0.294856	0.294366	0.442539	0.885243	0.412106	0.246350	-0.294856	0.347047	-0.169336	-0.084537	0.485032	0.871028	-2.735306	-2.745758	-1.242603	0.564007	3.017668
102.000000	-0.981069	-0.534354	0.192693	0.497474	1.658735	0.615733	0.060619	0.168308	1.035844	1.502964	1.016725	0.071921	0.205051	1.221629	1.278521	0.565022	-0.836653	-0.010684	0.183213	0.929567	1.155853	0.492451	0.382996	0.010683	0.227794	0.091728	0.173032	0.607637	0.937440	-2.664622	-2.604043	-0.883693	0.588062	3.105213
103.000000	-1.234301	-0.627559	0.001904	0.397999	1.694347	0.479710	-0.092453	-0.023586	1.166796	1.666394	1.216793	-0.130537	0.012061	1.910305	1.575041	1.155492	-1.147432	-0.246703	0.020331	1.478136	1.468746	0.752601	0.870325	0.246703	0.059268	0.388711	0.502534	0.807399	0.904903	-2.579163	-2.422025	-0.506201	0.424718	3.158951
104.000000	-1.451227	-0.738864	-0.156704	0.328310	1.705866	0.427538	-0.200765	-0.178035	1.190401	1.764427	1.367584	-0.184847	-0.156936	2.243536	1.790942	1.566315	-1.117090	-0.333648	-0.156394	1.744538	1.703510	1.054735	1.369926	0.333648	-0.128765	0.526833	0.778456	1.028038	0.842849	-2.593924	-2.316452	-0.268613	0.143633	3.206485
105.000000	-1.613425	-0.942623	-0.264341	0.244734	1.564285	0.377750	-0.267769	-0.277851	1.024098	1.649965	1.218700	-0.135167	-0.281761	1.884430	1.750143	1.445813	-0.897873	-0.266788	-0.327029	1.433293	1.685464	1.145876	1.519575	0.266788	-0.324638	0.308053	0.821449	1.116978	0.751064	-2.819148	-2.406601	-0.277966	-0.174575	3.253368
106.000000	-1.754004	-1.178811	-0.338117	0.072697	1.238084	0.247686	-0.345291	-0.336436	0.692163	1.339582	0.855140	-0.074911	-0.371882	1.043100	1.474505	0.906669	-0.682084	-0.161920	-0.462695	0.693583	1.438119	1.011418	1.434646	0.161920	-0.486325	-0.180311	0.652433	1.059633	0.680838	-3.206823	-2.645533	-0.432078	-0.479770	3.294196
107.000000	-1.947674	-1.416000	-0.410081	-0.276679	0.803042	0.002395	-0.441647	-0.393226	0.266730	0.958340	0.527157	-0.027836	-0.450956	0.208408	1.136953	0.442267	-0.497346	-0.196816	-0.551282	-0.041197	1.155891	0.891639	1.518037	0.196816	-0.575806	-0.650928	0.450009	1.016277	0.703508	-3.603043	-2.883368	-0.540992	-0.785693	3.395829
108.000000	-2.191133	-1.649033	-0.457083	-0.733686	0.391508	-0.295562	-0.505780	-0.433685	-0.111214	0.664317	0.441018	-0.039764	-0.489231	-0.253106	0.929940	0.443284	-0.429627	-0.358059	-0.555437	-0.401215	1.037676	1.025206	1.921229	0.358059	-0.544546	-0.851556	0.384239	1.131931	0.783584	-3.869474	-3.003361	-0.519690	-1.025317	3.589302
109.000000	-2.325061	-1.757303	-0.374146	-1.036118	0.165041	-0.472427	-0.458377	-0.344753	-0.249328	0.602004	0.649667	-0.083591	-0.379628	-0.207127	0.979026	0.914653	-0.359190	-0.399985	-0.392204	-0.267774	1.196948	1.483915	2.555938	0.399985	-0.335721	-0.700336	0.545548	1.437632	0.841315	-3.890198	-2.935946	-0.382889	-1.107138	3.803926
110.000000	-2.321755	-1.715820	-0.190027	-1.115730	0.113015	-0.449440	-0.337408	-0.164060	-0.172934	0.687281	0.961021	-0.073655	-0.172826	0.063770	1.169893	1.457381	-0.152946	-0.220379	-0.145160	0.071703	1.501500	2.054670	3.207307	0.220379	-0.060902	-0.405079	0.837259	1.830180	0.858776	-3.695702	-2.727247	-0.188742	-1.063026	3.959067
111.000000	-2.375475	-1.697193	-0.125829	-1.185580	0.046181	-0.391440	-0.332268	-0.122388	-0.127900	0.670589	1.135355	-0.064297	-0.113317	0.108516	1.235809	1.708850	0.097104	-0.012494	-0.068680	0.183612	1.664579	2.385216	3.539770	0.012494	0.024239	-0.288721	1.025040	2.119916	0.822824	-3.494996	-2.559595	-0.039520	-0.976017	4.061982
112.000000	-2.486023	-1.770208	-0.236407	-1.314192	-0.069797	-0.395897	-0.455577	-0.250691	-0.209166	0.512189	1.104198	-0.071084	-0.248741	-0.130656	1.132793	1.707872	0.433744	0.034777	-0.225291	-0.006428	1.628883	2.360294	3.396896	-0.034777	-0.136179	-0.411849	1.041270	2.210386	0.697927	-3.412612	-2.525341	0.011281	-0.936028	4.170890
113.000000	-2.484980	-1.834794	-0.380556	-1.380742	-0.091977	-0.339653	-0.556194	-0.381792	-0.318911	0.371049	0.999620	-0.052616	-0.413879	-0.401688	1.032288	1.729679	0.821816	-0.060603	-0.438125	-0.277717	1.554149	2.161383	2.867953	0.060603	-0.363707	-0.606882	1.012807	2.179386	0.528916	-3.406283	-2.552240	-0.028204	-0.920111	4.289199
114.000000	-2.338969	-1.850660	-0.453125	-1.309701	0.046853	-0.167442	-0.668043	-0.418883	-0.339495	0.366282	0.996040	-0.107947	-0.489323	-0.498418	1.046087	1.916249	1.050581	-0.138060	-0.540358	-0.419373	1.559579	2.037417	2.070164	0.138060	-0.482289	-0.705960	1.061284	2.177964	0.449571	-3.366055	-2.535377	-0.115667	-0.748381	4.298515
115.000000	-2.059952	-1.750878	-0.386782	-1.048836	0.347145	0.091873	-0.740915	-0.335412	-0.155724	0.544011	1.100478	-0.142718	-0.417967	-0.319616	1.197985	2.067500	1.179688	-0.091024	-0.467070	-0.304973	1.701907	2.114864	1.202257	0.091024	-0.417692	-0.573617	1.273333	2.342105	0.629206	-3.142844	-2.328951	-0.056330	-0.511284	4.052928
116.000000	-1.741823	-1.476766	-0.253948	-0.684675	0.722026	0.449412	-0.571497	-0.217815	0.154217	0.819853	1.205520	0.075373	-0.282990	0.043706	1.418108	1.926585	1.340219	0.036707	-0.315916	0.001782	1.922161	2.300730	0.423357	-0.036707	-0.275559	-0.260439	1.600039	2.647649	1.023601	-2.730882	-1.893947	0.301026	-0.480324	3.582895
117.000000	-1.542006	-1.196888	-0.205129	-0.426947	0.998760	0.797977	-0.294874	-0.180540	0.358763	1.017748	1.258334	0.390569	-0.231794	0.394796	1.576097	1.584045	1.393786	0.171131	-0.237652	0.325900	2.093930	2.461769	-0.355156	-0.171131	-0.214052	0.038414	1.893666	2.933529	1.323981	-2.320269	-1.412211	0.806152	-0.601604	3.066098
118.000000	-1.463032	-1.072175	-0.220349	-0.325213	1.144823	0.988226	-0.196238	-0.187993	0.398968	1.121756	1.381907	0.525823	-0.245233	0.687744	1.658888	1.530669	1.345828	0.270384	-0.221886	0.621465	2.213294	2.681128	-1.182050	-0.270383	-0.212315	0.271610	2.124213	3.150240	1.388552	-2.062312	-1.078484	1.207739	-0.618902	2.659801
119.000000	-1.344651	-0.999464	-0.129837	-0.232858	1.294007	1.064891	-0.196092	-0.089023	0.438645	1.263962	1.673045	0.580927	-0.149734	0.990564	1.785397	2.086200	1.464394	0.377186	-0.113379	0.953749	2.380725	3.122472	-1.806597	-0.377186	-0.099736	0.528307	2.377232	3.407470	1.387291	-1.888535	-0.857915	1.477904	-0.403727	2.474107
120.000000	-1.085422	-0.851661	0.179561	-0.027097	1.488702	1.108333	-0.107373	0.225678	0.632592	1.468038	1.929760	0.672607	0.174418	1.289031	1.992126	2.847480	1.717991	0.497666	0.187751	1.283294	2.609420	3.692163	-1.993159	-0.497666	0.223522	0.833821	2.671371	3.738730	1.475470	-1.692588	-0.638784	1.670513	-0.039595	2.528105
121.000000	-0.846881	-0.709757	0.527308	0.153778	1.569478	1.095118	0.043534	0.570961	0.833554	1.585918	1.949017	0.732728	0.531725	1.379695	2.106254	3.184603	1.783842	0.465265	0.512699	1.399284	2.732071	4.009145	-1.801817	-0.465265	0.571579	1.024378	2.854019	3.920251	1.585109	-1.594906	-0.536448	1.655153	0.276206	2.751045
122.000000	-0.870181	-0.723536	0.594894	0.082435	1.390929	0.963052	0.114867	0.619206	0.767817	1.449724	1.753066	0.674138	0.593718	1.048308	1.936595	2.957535	1.484793	0.241577	0.556937	1.111505	2.584106	3.826218	-1.365089	-0.241576	0.613891	0.882772	2.764694	3.752496	1.596769	-1.759164	-0.694330	1.349549	0.388913	3.012746
123.000000	-1.087668	-0.813538	0.408781	-0.154183	1.050104	0.756619	0.131354	0.422928	0.514507	1.128563	1.465610	0.562515	0.397987	0.519856	1.579223	2.416125	0.951545	0.012167	0.329712	0.594536	2.270378	3.313806	-0.727355	-0.012166	0.363861	0.492570	2.498973	3.373256	1.544074	-2.079346	-0.987606	0.934684	0.285331	3.152261
124.000000	-1.277094	-0.775368	0.243221	-0.313946	0.751410	0.591297	0.211563	0.262690	0.378128	0.859864	1.204441	0.578194	0.214778	0.280558	1.296785	1.822169	0.509059	-0.103525	0.110519	0.285900	2.047923	2.823619	0.050768	0.103525	0.131854	0.201379	2.314257	3.076570	1.564939	-2.305830	-1.171187	0.628827	0.078383	3.144733
125.000000	-1.360393	-0.613145	0.245927	-0.285212	0.602826	0.465947	0.173414	0.255039	0.483073	0.769053	1.082239	0.560894	0.196022	0.434679	1.226688	1.530096	0.375027	-0.149218	0.072656	0.345810	2.046343	2.660409	0.878827	0.149218	0.089013	0.200607	2.350316	3.066824	1.792399	-2.331053	-1.131656	0.528280	-0.045050	3.095093
126.000000	-1.381841	-0.494172	0.391848	-0.126642	0.567820	0.306857	-0.115370	0.384520	0.693785	0.800676	1.146460	0.299741	0.335020	0.667623	1.321060	1.811612	0.507359	-0.210333	0.197601	0.551143	2.188097	2.872138	1.632378	0.210333	0.212342	0.377708	2.519018	3.295232	2.159745	-2.225176	-0.959554	0.581434	0.000672	3.063492
127.000000	-1.456692	-0.568295	0.498283	-0.050201	0.495662	0.095981	-0.409936	0.492300	0.782847	0.788207	1.216400	0.038379	0.454893	0.701796	1.392713	2.250720	0.761598	-0.327097	0.321756	0.636633	2.266408	3.091400	2.092173	0.327097	0.338859	0.511641	2.614225	3.441766	2.325651	-2.138165	-0.859711	0.570184	-0.036300	3.063630
128.000000	-1.598601	-0.842478	0.410809	-0.144644	0.334646	-0.076341	-0.514655	0.415253	0.683668	0.669510	1.127683	0.064569	0.401615	0.553130	1.343377	2.231147	1.126697	-0.476244	0.307072	0.575761	2.196280	3.004512	2.150948	0.476245	0.310194	0.523122	2.575755	3.324314	2.087406	-2.155812	-0.922485	0.350342	-0.374742	3.087344
129.000000	-1.669399	-1.149471	0.207837	-0.274198	0.232096	-0.058491	-0.445717	0.224378	0.512000	0.584301	1.056677	0.361817	0.239356	0.367499	1.294142	1.928443	1.647199	-0.622477	0.176111	0.499956	2.118614	2.818382	2.000230	0.622477	0.149577	0.477659	2.529069	3.164962	1.665256	-2.220570	-1.017263	0.059393	-0.756638	3.071042
130.000000	-1.558428	-1.290968	0.047423	-0.308518	0.336643	0.201661	-0.250869	0.075982	0.391299	0.672918	1.252679	0.791497	0.104432	0.244554	1.391002	1.956056	2.212740	-0.751186	0.033498	0.499713	2.193491	2.911809	1.819477	0.751186	-0.021757	0.469078	2.607865	3.290821	1.334248	-2.226175	-0.984496	-0.102770	-0.889100	2.950160
131.000000	-1.301859	-1.167451	-0.025950	-0.225169	0.641586	0.581356	0.019952	0.010092	0.394455	0.937295	1.706415	1.193443	0.029722	0.257895	1.663706	2.482260	2.629259	-0.785723	-0.042914	0.645413	2.463551	3.378915	1.533587	0.785723	-0.125142	0.631314	2.867371	3.846102	1.154595	-2.103565	-0.780201	-0.081680	-0.806948	2.782192
132.000000	-0.915540	-0.736609	0.058754	0.047187	1.141186	1.018408	0.328704	0.107230	0.660871	1.402708	2.347932	1.466412	0.103720	0.543037	2.143594	3.275702	2.861246	-0.626133	0.063087	1.084507	2.966068	4.097422	1.199227	0.626133	-0.042533	1.148707	3.347723	4.682886	1.217400	-1.748025	-0.367998	0.112148	-0.633413	2.699545
133.000000	-0.400725	-0.098823	0.369293	0.501620	1.770989	1.503629	0.664113	0.434552	1.170361	2.007880	3.033611	1.641447	0.414388	1.067676	2.739717	3.989152	2.900662	-0.314102	0.410299	1.745246	3.585770	4.758885	1.098469	0.314102	0.301648	1.910158	3.932440	5.236643	1.619315	-1.216234	0.148543	0.327968	-0.456012	2.768360
134.000000	0.011262	0.434550	0.736475	0.878906	2.246448	1.867071	1.004239	0.806864	1.601314	2.450357	3.368664	1.806090	0.782095	1.502529	3.137222	4.240338	2.697122	-0.007496	0.804108	2.208496	3.987308	5.021854	1.147177	0.007496	0.723740	2.416297	4.293343	5.141423	2.107637	-0.829228	0.451628	0.298019	-0.360009	2.924909
135.000000	0.136895	0.631677	0.973267	1.057641	2.433087	2.017600	1.245377	1.038170	1.802238	2.601581	3.265616	1.907208	1.019869	1.687588	3.242987	4.028265	2.486367	0.180108	1.055358	2.327544	4.077992	4.910962	1.003974	-0.180108	1.015917	2.483343	4.347524	4.799724	2.251970	-0.699132	0.453253	-0.013478	-0.334727	3.025363
136.000000	0.081078	0.504956	1.108303	1.164833	2.484532	2.048182	1.240490	1.157199	1.917915	2.659746	3.165344	1.720818	1.160992	1.782180	3.296052	3.835822	2.391702	0.285137	1.180774	2.360405	4.081735	4.736646	0.653375	-0.285136	1.168101	2.432919	4.337351	4.696141	2.003603	-0.648045	0.374667	-0.402658	-0.222408	3.053710
137.000000	-0.021600	0.182633	1.239214	1.262675	2.525748	2.054462	1.021058	1.260696	2.061654	2.783472	3.324078	1.360385	1.289271	1.911282	3.444868	3.973160	2.287234	0.397576	1.269910	2.465416	4.155617	4.706164	0.490573	-0.397576	1.250061	2.489970	4.405098	4.734928	1.749518	-0.557983	0.371176	-0.717057	0.031137	3.072290
138.000000	-0.108492	-0.134847	1.403043	1.351711	2.573053	2.100699	0.871313	1.397863	2.230937	2.949140	3.523681	1.302272	1.438012	2.078874	3.631924	4.238674	2.148629	0.488767	1.378234	2.624174	4.291231	4.799513	0.850012	-0.488767	1.318217	2.628304	4.517683	4.575222	1.769413	-0.460702	0.419214	-0.970309	0.207221	3.082818
139.000000	-0.099719	-0.274509	1.563938	1.464938	2.642467	2.164322	0.908704	1.542773	2.419342	3.124241	3.617284	1.538492	1.575326	2.314540	3.818463	4.476834	1.809012	0.476628	1.482839	2.831179	4.477050	4.955018	1.495850	-0.476628	1.381827	2.811700	4.662231	4.289702	1.960893	-0.424079	0.461798	-1.201894	0.139263	3.103584
140.000000	0.042922	-0.222671	1.666127	1.641484	2.798807	2.256766	0.964726	1.638894	2.687032	3.361224	3.825393	1.664470	1.648894	2.725770	4.088606	4.893428	1.238618	0.365190	1.544044	3.173744	4.760007	5.091984	2.065995	-0.365190	1.420216	3.074137	4.878414	4.163642	2.171657	-0.400494	0.549884	-1.311734	-0.105368	3.122315
141.000000	0.252025	-0.043476	1.725070	1.895442	3.074322	2.483096	1.003968	1.693966	3.091787	3.702192	4.216034	1.672277	1.684633	3.374365	4.485523	5.486746	0.748154	0.269618	1.598595	3.737429	5.148722	5.116062	2.471311	-0.269618	1.472140	3.468820	5.188192	4.225825	2.403553	-0.250550	0.804406	-1.174487	-0.405465	3.060498
142.000000	0.440813	0.196754	1.817290	2.194391	3.410340	2.840908	1.107851	1.787874	3.579391	4.110762	4.610384	1.773661	1.767605	4.113071	4.938280	5.965849	0.637061	0.244748	1.714244	4.432782	5.592706	5.160705	2.684340	-0.244748	1.595291	3.966553	5.577187	4.445975	2.678877	0.097909	1.260899	-0.801450	-0.577981	2.929350
143.000000	0.563046	0.432687	1.994174	2.506647	3.729018	3.184144	1.291966	1.983830	4.040158	4.512990	4.935488	2.024815	1.951388	4.691619	5.373154	6.256992	1.010774	0.220301	1.913352	5.034969	6.040258	5.408503	2.662463	-0.220301	1.801612	4.464343	5.995466	4.792417	2.883462	0.583755	1.801346	-0.374979	-0.560361	2.818740
144.000000	0.612691	0.624453	2.242139	2.813841	3.994308	3.425499	1.540310	2.257027	4.416078	4.854401	5.149012	2.391530	2.219132	5.054050	5.750936	6.350800	1.680888	0.250066	2.173143	5.435801	6.451626	5.822551	2.420581	-0.250066	2.077349	4.901938	6.375181	5.149039	2.861481	1.079818	2.274776	-0.129725	-0.467581	2.783322
145.000000	0.682194	0.825859	2.534942	3.126865	4.236565	3.640601	1.845201	2.557246	4.746908	5.130865	5.224113	2.782880	2.525972	5.357300	6.056830	6.096766	2.381323	0.450338	2.458175	5.731960	6.800666	6.231399	2.087574	-0.450338	2.380077	5.286549	6.686921	5.423637	2.651906	1.482023	2.601817	-0.146292	-0.278260	2.804534
146.000000	0.876479	1.116996	2.831779	3.454917	4.486941	3.868720	2.142152	2.844299	5.044071	5.346737	5.180139	3.080705	2.812824	5.586329	6.263995	5.471153	2.930207	0.693695	2.708619	5.950196	7.041627	6.398438	1.747949	-0.693695	2.642709	5.574703	6.916862	5.527777	2.423869	1.720400	2.752351	-0.344536	0.031549	2.810295
147.000000	1.069739	1.377752	2.996402	3.684442	4.649841	4.005508	2.233123	2.990992	5.162186	5.435529	5.010562	3.167882	2.952144	5.532669	6.298054	4.689494	3.213227	0.770629	2.806160	5.946561	7.077048	6.166880	1.388227	-0.770629	2.754293	5.638319	6.972141	5.347284	2.208551	1.749410	2.713566	-0.648443	0.264046	2.780048
148.000000	1.065429	1.369649	2.940357	3.701592	4.621042	3.918448	1.994759	2.916918	5.030389	5.347754	4.746819	2.977126	2.874644	5.222339	6.162173	4.050135	3.180732	0.698700	2.700406	5.704191	6.902855	5.630524	1.079600	-0.698700	2.664062	5.470533	6.815888	4.893343	1.868538	1.593105	2.523657	-1.017398	0.285856	2.686814
149.000000	0.951340	1.161276	2.782296	3.594032	4.509014	3.640358	1.634893	2.754127	4.822872	5.204499	4.531777	2.590068	2.711701	4.925050	6.025685	3.790430	2.898751	0.598011	2.532635	5.442546	6.711279	5.098133	1.003009	-0.598011	2.506890	5.269433	6.614222	4.435290	1.342505	1.381997	2.303604	-1.375341	0.251043	2.451271
150.000000	0.909629	1.036783	2.675475	3.507986	4.479782	3.359171	1.398893	2.663334	4.724827	5.179421	4.458802	2.173414	2.627277	4.874398	6.027080	3.914413	2.530953	0.470286	2.469691	5.373070	6.665430	4.841023	1.173211	-0.470286	2.435518	5.207467	6.534942	4.316284	0.772066	1.248302	2.131672	-1.677593	0.334391	2.112873
151.000000	0.946453	1.054027	2.652177	3.455742	4.557712	3.239703	1.302042	2.660285	4.785799	5.296263	4.467826	1.846013	2.632034	5.144103	6.151124	4.164084	2.122884	0.315974	2.502721	5.532757	6.744968	4.832139	1.385945	-0.315974	2.451251	5.294845	6.570495	4.452942	0.392764	1.200545	1.987587	-1.962402	0.560643	1.875293
152.000000	1.053431	1.156209	2.682850	3.453727	4.756850	3.389179	1.425167	2.702617	5.050411	5.522762	4.570369	1.767791	2.674814	5.688715	6.361416	4.450282	1.712171	0.211679	2.543173	5.853213	6.905965	4.929717	1.587377	-0.211679	2.494123	5.487572	6.666008	4.397164	0.383224	1.228873	1.910036	-2.216239	0.733421	1.863155
153.000000	1.258458	1.328336	2.759594	3.557934	5.042785	3.730581	1.827412	2.780114	5.435966	5.817905	4.763820	2.056280	2.752775	6.252149	6.608231	4.833064	1.439343	0.175790	2.575264	6.179440	7.110302	5.125761	1.832835	-0.175790	2.542458	5.705867	6.785519	4.104704	0.697255	1.377833	2.000560	-2.306743	0.631062	1.986772
154.000000	1.523396	1.504650	2.919840	3.738618	5.242253	3.992258	2.230907	2.923643	5.673306	6.032783	4.836740	2.430055	2.900975	6.402937	6.743223	5.033303	1.344063	0.204574	2.672082	6.308102	7.227668	5.286841	2.078419	-0.204574	2.640098	5.832774	6.835416	3.843415	1.026852	1.619798	2.232811	-2.184170	0.406503	2.160139
155.000000	1.759640	1.593119	3.149363	3.904347	5.243096	4.012438	2.352567	3.127760	5.647483	6.031754	4.651398	2.497730	3.112146	6.079755	6.660931	4.736527	1.381452	0.311182	2.868157	6.196235	7.156644	5.107619	2.400288	-0.311182	2.812501	5.834628	6.746688	3.563715	1.090232	1.862271	2.472724	-1.981167	0.342526	2.391447
156.000000	1.857528	1.533463	3.341482	3.949290	5.057769	3.817805	2.172077	3.294845	5.453773	5.827945	4.295687	2.215419	3.285274	5.629689	6.424649	4.137235	1.403350	0.454553	3.055706	5.977581	6.932687	4.595565	2.882725	-0.454553	2.971074	5.751295	6.542302	3.175801	0.836829	2.022684	2.622511	-1.846834	0.479816	2.640264
157.000000	1.868674	1.425425	3.480750	3.940154	4.860755	3.609050	1.884991	3.434111	5.290629	5.628645	4.028857	1.862502	3.410240	5.365490	6.227591	3.731414	1.447634	0.580544	3.204380	5.843918	6.726551	4.099913	3.331667	-0.580544	3.096398	5.679250	6.364436	2.862278	0.453159	2.140387	2.714069	-1.772419	0.610978	2.752278
