time	FP1	FP2	F7	F3	FZ	F4	F8	FT7	FC3	FCZ	FC4	FT8	T7	C3	CZ	C4	T8	M1	TP7	CP3	CPZ	CP4	TP8	M2	P7	P3	PZ	P4	P8	O1	OZ	O2	HEO	VEO	
-200.000000	0.370076	0.360313	-0.587858	-0.266900	-0.441181	-0.622362	-0.570819	-0.585639	-0.531100	-0.468285	-0.561144	-0.493743	-0.563999	-0.893165	-0.514018	-0.783310	-1.438016	-0.137099	-0.551212	-0.680092	-0.548858	-0.397745	-1.720305	0.137099	-0.568229	-0.471064	-0.411477	-0.224543	-0.221410	-0.342059	-0.364273	-0.353876	0.122977	-2.277565
-199.000000	0.451971	0.431832	-0.420356	-0.175491	-0.328537	-0.474752	-0.507800	-0.421434	-0.442705	-0.384100	-0.488956	-0.389553	-0.401403	-0.794197	-0.427066	-0.488612	-1.457746	0.031796	-0.427044	-0.628802	-0.473072	-0.296754	-2.089981	-0.031796	-0.443867	-0.428351	-0.340857	-0.157608	-0.138870	-0.319269	-0.303767	-0.272679	0.188083	-2.097938
-198.000000	0.598491	0.611620	-0.203070	-0.017620	-0.165414	-0.300562	-0.383508	-0.211067	-0.297395	-0.227354	-0.302493	-0.228782	-0.203522	-0.604699	-0.238935	0.042142	-1.069961	0.247407	-0.194678	-0.436877	-0.281064	0.049654	-1.830231	-0.247407	-0.207583	-0.221517	-0.115026	0.063919	0.090581	-0.088133	-0.089353	-0.000930	0.201281	-1.899243
-197.000000	0.640170	0.713469	-0.039794	0.092093	-0.095888	-0.272330	-0.360428	-0.066242	-0.193707	-0.125345	-0.134082	-0.231767	-0.060844	-0.416140	-0.079150	0.550826	-0.638732	0.407478	0.015032	-0.230040	-0.087100	0.469171	-1.083464	-0.407478	0.002121	0.022828	0.124136	0.327643	0.355503	0.188821	0.164343	0.281778	0.243035	-1.715141
-196.000000	0.476314	0.501019	-0.064368	0.051847	-0.237255	-0.450521	-0.558127	-0.099112	-0.231415	-0.207822	-0.142764	-0.514568	-0.097923	-0.335839	-0.105128	0.744655	-0.393942	0.397110	0.026761	-0.160523	-0.052331	0.644368	-0.220594	-0.397110	0.011610	0.135416	0.189401	0.437808	0.525420	0.280580	0.262416	0.350693	0.297029	-1.547792
-195.000000	0.151157	-0.063674	-0.307849	-0.150224	-0.587644	-0.756963	-0.883469	-0.323166	-0.440071	-0.493098	-0.467426	-0.915404	-0.336507	-0.371186	-0.359878	0.366494	-0.353310	0.212854	-0.219062	-0.239878	-0.260598	0.390653	0.528895	-0.212854	-0.229148	0.034217	0.002300	0.292464	0.608393	0.096557	0.111003	0.169263	0.278517	-1.409345
-194.000000	-0.194736	-0.737393	-0.620562	-0.407170	-0.991105	-1.059747	-1.147098	-0.606125	-0.677623	-0.852645	-1.021469	-1.145951	-0.626711	-0.372752	-0.725318	-0.556794	-0.394887	-0.043606	-0.576106	-0.308903	-0.594172	-0.217152	1.035368	0.043606	-0.574539	-0.169236	-0.311674	-0.068513	0.630644	-0.235601	-0.185668	-0.117095	0.163060	-1.302473
-193.000000	-0.442831	-1.208144	-0.867103	-0.586790	-1.283588	-1.267466	-1.248368	-0.825973	-0.786258	-1.127939	-1.493406	-1.094831	-0.848772	-0.249474	-1.015963	-1.540670	-0.358682	-0.292074	-0.883300	-0.270603	-0.857541	-0.923996	1.200066	0.292074	-0.863485	-0.312042	-0.562013	-0.497714	0.571125	-0.522421	-0.440828	-0.316641	-0.046620	-1.227005
-192.000000	-0.513147	-1.375004	-0.973501	-0.587934	-1.388708	-1.307094	-1.202389	-0.910531	-0.734345	-1.228501	-1.650496	-0.875976	-0.941318	-0.059303	-1.116862	-2.065960	-0.261525	-0.414730	-1.032273	-0.154657	-0.935717	-1.413749	1.095391	0.414730	-0.991690	-0.337177	-0.662920	-0.809283	0.478932	-0.641396	-0.537914	-0.339977	-0.308406	-1.199314
-191.000000	-0.382182	-1.286887	-0.875201	-0.396457	-1.262518	-1.143023	-1.065000	-0.814226	-0.506677	-1.090737	-1.457420	-0.684776	-0.842135	0.202319	-0.982879	-1.945834	-0.342885	-0.345321	-0.932024	0.046196	-0.780722	-1.480853	0.980061	0.345321	-0.888748	-0.186004	-0.578785	-0.869316	0.452630	-0.519035	-0.439282	-0.243664	-0.533723	-1.229437
-190.000000	-0.148065	-1.010151	-0.651766	-0.155766	-0.988495	-0.878014	-0.914037	-0.598866	-0.201757	-0.796996	-1.098547	-0.683878	-0.615418	0.477713	-0.697140	-1.371866	-0.758598	-0.249490	-0.665308	0.274452	-0.474766	-1.166780	1.066614	0.249490	-0.635845	0.091637	-0.362661	-0.679072	0.509224	-0.247561	-0.249498	-0.192977	-0.701898	-1.265407
-189.000000	0.055522	-0.646055	-0.423532	-0.008389	-0.781469	-0.700895	-0.836355	-0.363551	-0.037396	-0.592325	-0.906743	-0.835627	-0.376842	0.492753	-0.498693	-0.932983	-1.300374	-0.264626	-0.394506	0.343601	-0.231992	-0.779787	1.285279	0.264626	-0.376909	0.272883	-0.189862	-0.422693	0.577680	-0.015237	-0.138853	-0.289144	-0.822695	-1.221247
-188.000000	0.184192	-0.313012	-0.235822	0.026526	-0.728504	-0.654162	-0.822084	-0.186349	-0.074477	-0.571681	-0.984829	-0.934597	-0.193272	0.158560	-0.500431	-1.017349	-1.614605	-0.313064	-0.187480	0.193386	-0.177610	-0.643832	1.412357	0.313064	-0.178746	0.256809	-0.151019	-0.309988	0.576607	0.107282	-0.121987	-0.418002	-0.832086	-1.089598
-187.000000	0.163557	-0.141654	-0.206609	-0.053706	-0.790149	-0.730732	-0.877392	-0.177935	-0.242987	-0.668230	-1.163967	-0.990570	-0.178052	-0.306322	-0.635395	-1.313040	-1.666871	-0.337299	-0.134812	-0.071526	-0.296087	-0.754985	1.315015	0.337299	-0.131770	0.104327	-0.225021	-0.377090	0.429330	0.103637	-0.152924	-0.470249	-0.731646	-0.909938
-186.000000	-0.047727	-0.142592	-0.365600	-0.205669	-0.895215	-0.958072	-1.038837	-0.334861	-0.457760	-0.805618	-1.262699	-1.135981	-0.343431	-0.684212	-0.782070	-1.347813	-1.642876	-0.357018	-0.262871	-0.310050	-0.478978	-0.891133	1.019044	0.357018	-0.251534	-0.070313	-0.340993	-0.502824	0.162925	0.001766	-0.201739	-0.441527	-0.607152	-0.675202
-185.000000	-0.262653	-0.111807	-0.525856	-0.294636	-0.908498	-1.140940	-1.157354	-0.489284	-0.573781	-0.842911	-1.166255	-1.213167	-0.510080	-0.826547	-0.783725	-1.050476	-1.535492	-0.364303	-0.417567	-0.379253	-0.539472	-0.898577	0.722707	0.364303	-0.381985	-0.123311	-0.351350	-0.514915	0.010917	-0.044135	-0.143316	-0.286864	-0.501888	-0.411196
-184.000000	-0.368651	0.004616	-0.598052	-0.293567	-0.823931	-1.128980	-1.108307	-0.565175	-0.535763	-0.767820	-1.016893	-1.080275	-0.599511	-0.725640	-0.659777	-0.835772	-1.392969	-0.348338	-0.508650	-0.289478	-0.458732	-0.863616	0.441342	0.348338	-0.456415	-0.041287	-0.230961	-0.422972	0.089673	0.040183	0.041751	-0.035779	-0.465292	-0.214391
-183.000000	-0.454089	-0.004567	-0.660678	-0.324906	-0.790353	-1.080431	-1.036798	-0.623867	-0.456736	-0.745829	-1.033350	-0.947330	-0.684428	-0.544996	-0.588408	-0.962108	-1.403401	-0.285873	-0.585170	-0.191764	-0.402482	-0.941804	-0.033935	0.285873	-0.543996	0.053634	-0.126425	-0.413913	0.193814	0.105083	0.152501	0.113840	-0.462289	-0.136597
-182.000000	-0.514408	-0.200315	-0.719625	-0.420969	-0.799129	-1.075777	-1.042828	-0.678436	-0.400558	-0.775594	-1.092919	-0.968322	-0.755446	-0.381909	-0.553267	-1.039009	-1.568403	-0.209602	-0.642510	-0.116876	-0.364522	-1.000071	-0.611482	0.209602	-0.627453	0.124464	-0.070371	-0.474766	0.182823	0.060886	0.112461	0.070620	-0.382184	-0.169734
-181.000000	-0.447635	-0.467563	-0.670220	-0.435354	-0.719533	-0.989738	-1.040158	-0.649219	-0.306307	-0.705264	-0.978402	-1.035248	-0.704082	-0.183703	-0.404392	-0.740477	-1.838113	-0.147271	-0.587379	0.021596	-0.206876	-0.855510	-0.954551	0.147271	-0.588653	0.252743	0.044158	-0.457354	0.123096	0.028000	0.063160	-0.015770	-0.210962	-0.283690
-180.000000	-0.263231	-0.742435	-0.504788	-0.298630	-0.587244	-0.849800	-1.021246	-0.513444	-0.148178	-0.528070	-0.784015	-1.070404	-0.524563	0.055190	-0.167051	-0.293286	-2.137894	-0.068041	-0.410190	0.217018	0.032586	-0.577616	-0.859705	0.068041	-0.415047	0.442707	0.232822	-0.356995	0.048146	0.100980	0.090297	-0.039235	0.041764	-0.449943
-179.000000	-0.119808	-1.017570	-0.375612	-0.170664	-0.558604	-0.826725	-1.056089	-0.398935	-0.047683	-0.411099	-0.752786	-1.090931	-0.380983	0.213451	-0.009226	-0.105550	-2.292226	-0.068484	-0.261580	0.340544	0.193629	-0.300751	-0.401906	0.068484	-0.273164	0.549743	0.373125	-0.240028	-0.067387	0.171744	0.113767	-0.071645	0.326674	-0.676244
-178.000000	-0.065202	-1.222646	-0.324968	-0.135268	-0.638858	-0.891454	-1.077598	-0.353466	-0.072448	-0.399695	-0.869823	-1.030536	-0.336803	0.275157	0.009280	-0.218520	-2.048745	-0.204939	-0.208657	0.357045	0.246015	-0.091515	0.165190	0.204939	-0.232447	0.525417	0.402475	-0.138182	-0.195502	0.119463	0.052591	-0.159433	0.493775	-0.948829
-177.000000	-0.020374	-1.254341	-0.276686	-0.134608	-0.697142	-0.928640	-1.009283	-0.306087	-0.115023	-0.387979	-0.905381	-0.849121	-0.308325	0.373922	-0.003613	-0.247620	-1.281183	-0.311563	-0.179880	0.375016	0.279005	0.039925	0.636883	0.311563	-0.221063	0.481402	0.392983	-0.070757	-0.285452	-0.004491	-0.041264	-0.271124	0.549184	-1.158962
-176.000000	0.045446	-1.075489	-0.188857	-0.117357	-0.637898	-0.871603	-0.883339	-0.214801	-0.075558	-0.305073	-0.703720	-0.618341	-0.234738	0.543773	0.088359	0.102220	-0.219748	-0.275916	-0.124574	0.466834	0.393009	0.248128	0.966991	0.275916	-0.188168	0.510996	0.448461	0.055904	-0.307674	-0.073146	-0.057062	-0.335747	0.631512	-1.205476
-175.000000	0.161767	-0.674964	-0.002866	-0.009842	-0.462284	-0.693069	-0.694032	-0.025267	0.041228	-0.141643	-0.310689	-0.350217	-0.047175	0.652103	0.292114	0.663043	0.863948	-0.183362	0.018181	0.579771	0.605060	0.585372	1.226690	0.183362	-0.058301	0.609024	0.596133	0.304873	-0.323095	-0.023607	0.035119	-0.318193	0.780676	-1.115944
-174.000000	0.319733	-0.140105	0.264588	0.191285	-0.271322	-0.476593	-0.417635	0.244298	0.190120	0.043525	0.065650	-0.003284	0.242572	0.666050	0.496076	1.048834	1.812010	-0.110433	0.255445	0.670771	0.810265	0.831924	1.393353	0.110433	0.187898	0.727726	0.780872	0.534340	-0.478115	0.116638	0.195176	-0.257921	0.959549	-0.973341
-173.000000	0.453077	0.351615	0.496386	0.410650	-0.109590	-0.257887	-0.085487	0.489122	0.363881	0.227523	0.274811	0.412456	0.505949	0.760835	0.677316	1.096077	2.418936	-0.055278	0.489044	0.837055	0.975075	0.954767	1.287129	0.055278	0.451090	0.903037	0.978393	0.716890	-0.700762	0.324148	0.419534	-0.113083	0.998868	-0.836536
-172.000000	0.491755	0.644345	0.594380	0.553890	0.017218	-0.039526	0.198230	0.608902	0.497955	0.376611	0.292494	0.749486	0.623131	0.944784	0.826633	0.863136	2.520495	-0.040761	0.622736	1.072458	1.099265	1.054213	0.611972	0.040761	0.616184	1.110059	1.142731	0.902064	-0.747794	0.541163	0.656830	0.132178	0.779021	-0.754727
-171.000000	0.415661	0.693833	0.554607	0.557465	0.063335	0.091954	0.352932	0.572562	0.496226	0.406094	0.160380	0.876781	0.573182	0.986124	0.852738	0.489988	2.132416	-0.080625	0.624980	1.177680	1.112093	1.072129	-0.788900	0.080625	0.639442	1.199980	1.194769	0.999261	-0.584286	0.675190	0.799687	0.377132	0.436815	-0.758855
-170.000000	0.267979	0.562074	0.422460	0.450033	0.026012	0.090300	0.379859	0.422633	0.373096	0.330580	-0.014188	0.822687	0.411514	0.779766	0.740734	0.158464	1.408291	-0.172472	0.506995	1.049415	1.007082	0.960347	-2.497428	0.172473	0.530271	1.119684	1.142998	0.940545	-0.370864	0.715913	0.829569	0.549439	0.100870	-0.855054
-169.000000	0.109455	0.289766	0.206671	0.301622	-0.059930	-0.014474	0.254326	0.189503	0.206836	0.217132	-0.119374	0.593718	0.167439	0.473478	0.566115	0.064656	0.616708	-0.257683	0.284853	0.792448	0.853209	0.808711	-3.770920	0.257683	0.305021	0.935551	1.050282	0.788034	-0.228541	0.712798	0.802264	0.619266	-0.205821	-0.989611
-168.000000	0.050642	-0.002222	0.003386	0.234853	-0.094119	-0.107021	0.035241	-0.018249	0.148993	0.156686	-0.076689	0.243028	-0.050992	0.358305	0.480619	0.301659	0.101859	-0.226516	0.076045	0.651053	0.785114	0.734679	-4.223669	0.226516	0.088341	0.811280	1.012588	0.650056	-0.141607	0.782175	0.811385	0.624266	-0.464419	-1.063644
-167.000000	0.134696	-0.124115	-0.063185	0.303462	-0.013573	-0.073479	-0.075875	-0.077370	0.263743	0.207471	0.076609	0.013820	-0.109029	0.511664	0.546041	0.679942	0.080524	-0.089165	0.008813	0.727549	0.857751	0.705243	-3.951417	0.089165	0.012374	0.837572	1.065340	0.555113	-0.036292	0.983430	0.895339	0.618653	-0.679876	-1.032523
-166.000000	0.267115	-0.046268	0.014364	0.387613	0.084166	0.020813	0.026518	0.009160	0.383180	0.275042	0.139643	0.075170	-0.005644	0.622606	0.613588	0.797140	0.466924	0.061978	0.079792	0.827107	0.934063	0.609498	-3.248154	-0.061978	0.081312	0.893992	1.110912	0.491539	0.111003	1.193853	0.987830	0.596421	-0.841772	-0.887955
-165.000000	0.347645	0.118442	0.186738	0.401517	0.105865	0.080308	0.247097	0.182796	0.411318	0.270030	0.032979	0.313322	0.194226	0.521332	0.591526	0.503850	0.896418	0.174409	0.244635	0.815964	0.927787	0.473224	-2.373834	-0.174409	0.256048	0.901433	1.110924	0.487281	0.262486	1.287321	1.045722	0.577421	-0.922428	-0.651178
-164.000000	0.334382	0.270195	0.369161	0.383340	0.088704	0.122819	0.437179	0.365035	0.434098	0.246533	-0.075578	0.520864	0.403896	0.428025	0.563514	0.112910	1.065270	0.243443	0.444227	0.793300	0.906003	0.415081	-1.380264	-0.243443	0.475151	0.914447	1.133796	0.556527	0.379902	1.288220	1.110116	0.631718	-0.941296	-0.417024
-163.000000	0.274121	0.361338	0.511398	0.369847	0.089151	0.168852	0.535196	0.512175	0.489516	0.259057	-0.088862	0.618297	0.558465	0.486594	0.607540	-0.125147	0.959857	0.276932	0.619674	0.835895	0.932347	0.457916	-0.254773	-0.276932	0.678532	0.972892	1.204298	0.671266	0.498773	1.299363	1.218569	0.778701	-0.973595	-0.271992
-162.000000	0.206116	0.376153	0.579549	0.298452	0.053070	0.175275	0.547672	0.579393	0.486739	0.253278	-0.069383	0.625572	0.612714	0.560318	0.652445	-0.225991	0.706623	0.278770	0.691950	0.862636	0.957803	0.514246	0.886478	-0.278770	0.767600	1.013887	1.265079	0.776687	0.677547	1.319559	1.309196	0.934796	-1.018255	-0.205877
-161.000000	0.094201	0.331452	0.497477	0.089445	-0.098942	0.093188	0.459329	0.483227	0.324933	0.148494	-0.076284	0.535725	0.511990	0.454868	0.570678	-0.223905	0.364378	0.284877	0.570696	0.735574	0.877052	0.485918	1.762703	-0.284877	0.635188	0.894074	1.210863	0.780745	0.850888	1.219113	1.263387	0.971454	-0.928250	-0.121659
-160.000000	-0.073540	0.233368	0.265841	-0.218079	-0.354930	-0.071685	0.250012	0.236349	0.024857	-0.073269	-0.129684	0.312389	0.262049	0.142372	0.344212	-0.182741	-0.103241	0.288879	0.276008	0.422013	0.663080	0.318335	2.049640	-0.288879	0.327969	0.557364	0.987011	0.619836	0.879993	0.912416	1.027954	0.792573	-0.694886	0.039107
-159.000000	-0.312159	-0.001606	-0.063594	-0.554424	-0.681639	-0.340669	-0.113475	-0.093827	-0.335734	-0.394407	-0.289162	-0.095500	-0.079659	-0.267050	0.014282	-0.225224	-0.678831	0.221639	-0.097441	0.010313	0.344200	-0.000708	1.698849	-0.221639	-0.049721	0.101377	0.622885	0.296923	0.686989	0.437343	0.646472	0.400220	-0.477707	0.234564
-158.000000	-0.604253	-0.366199	-0.398051	-0.849169	-0.993060	-0.685589	-0.590564	-0.415152	-0.651030	-0.724796	-0.554124	-0.613462	-0.404272	-0.633281	-0.336387	-0.359164	-1.082805	0.089986	-0.432448	-0.367350	-0.001253	-0.372438	1.011328	-0.089987	-0.402176	-0.312940	0.215980	-0.101203	0.294283	-0.057198	0.237658	-0.072886	-0.298435	0.406972
-157.000000	-0.813026	-0.660729	-0.555242	-0.972375	-1.120382	-0.907392	-0.953512	-0.561363	-0.756225	-0.873461	-0.709223	-0.971274	-0.545831	-0.780551	-0.513164	-0.368342	-1.040310	0.012156	-0.575935	-0.547991	-0.197109	-0.561698	0.423835	-0.012156	-0.568461	-0.521257	-0.048440	-0.363166	-0.138023	-0.366679	-0.028572	-0.433457	-0.075696	0.525152
-156.000000	-0.798783	-0.725857	-0.442737	-0.849489	-0.988742	-0.868223	-1.003933	-0.443874	-0.587875	-0.750540	-0.618695	-0.955702	-0.429729	-0.635226	-0.404436	-0.155776	-0.653689	0.090780	-0.453422	-0.445428	-0.136855	-0.447849	0.133847	-0.090780	-0.463067	-0.447129	-0.053331	-0.351750	-0.412682	-0.388307	-0.056681	-0.571255	0.139651	0.593008
-155.000000	-0.543059	-0.540419	-0.145102	-0.534070	-0.665574	-0.623267	-0.773909	-0.128499	-0.239704	-0.433953	-0.367643	-0.612347	-0.130183	-0.298864	-0.109734	0.152850	-0.123130	0.285289	-0.138901	-0.141118	0.110307	-0.130047	-0.049919	-0.285289	-0.166472	-0.166252	0.139416	-0.145137	-0.486593	-0.192553	0.096395	-0.524181	0.264331	0.622969
-154.000000	-0.175083	-0.208312	0.228394	-0.128707	-0.271349	-0.292863	-0.455966	0.271709	0.164015	-0.037684	-0.045665	-0.223222	0.252418	0.105614	0.237509	0.506552	0.329157	0.477612	0.262005	0.225265	0.419480	0.289304	-0.373362	-0.477612	0.212198	0.190049	0.401064	0.127895	-0.460542	0.092510	0.323959	-0.388770	0.400969	0.618384
-153.000000	0.170193	0.138703	0.604212	0.274962	0.070880	0.003750	-0.179481	0.656686	0.530123	0.312252	0.203326	0.035840	0.640118	0.496619	0.529217	0.698930	0.483542	0.567223	0.661904	0.548550	0.671205	0.701538	-0.798483	-0.567223	0.595994	0.525631	0.630784	0.386146	-0.414527	0.393212	0.580587	-0.184287	0.609711	0.548152
-152.000000	0.480841	0.471375	0.943769	0.636469	0.342391	0.233471	0.071050	0.985327	0.835966	0.552479	0.278486	0.257225	0.987585	0.826049	0.716668	0.504227	0.466513	0.565725	1.006617	0.794768	0.826638	0.965322	-1.005002	-0.565725	0.942903	0.797062	0.806841	0.604253	-0.292254	0.716847	0.885605	0.165801	0.761802	0.344967
-151.000000	0.718658	0.720624	1.187185	0.901175	0.553175	0.354911	0.272203	1.210643	1.039827	0.673598	0.238259	0.478678	1.227307	1.028547	0.792613	0.102100	0.516301	0.547326	1.225686	0.929175	0.883011	0.988086	-0.774799	-0.547326	1.177286	0.943943	0.912530	0.739086	-0.024855	1.015720	1.178201	0.624732	0.781273	0.064291
-150.000000	0.772983	0.729135	1.231220	0.956256	0.618831	0.283332	0.315233	1.241463	1.027458	0.626401	0.124015	0.572619	1.254237	1.005427	0.708078	-0.282930	0.560569	0.495967	1.227336	0.857705	0.764283	0.720180	-0.291725	-0.495967	1.192522	0.868226	0.865472	0.672409	0.252315	1.129467	1.288276	0.971527	0.682118	-0.159165
-149.000000	0.696960	0.572243	1.120934	0.829395	0.531215	0.089193	0.206338	1.132581	0.828245	0.446611	-0.031545	0.485812	1.126839	0.792762	0.499175	-0.589042	0.468078	0.455425	1.087204	0.616735	0.508350	0.286896	0.075106	-0.455425	1.065355	0.624152	0.681573	0.391636	0.307146	1.044491	1.182789	1.059483	0.557226	-0.288287
-148.000000	0.630113	0.423363	0.962674	0.645855	0.358732	-0.139428	0.049687	0.989708	0.578845	0.236354	-0.195487	0.230721	0.977085	0.516763	0.272495	-0.790551	0.254882	0.493291	0.913895	0.353733	0.241349	-0.078705	0.157262	-0.493291	0.928747	0.358578	0.463512	0.058875	0.107787	0.887634	0.976993	0.919089	0.553582	-0.341631
-147.000000	0.594690	0.258519	0.794368	0.466905	0.151507	-0.363625	-0.095883	0.833481	0.336708	0.053341	-0.366031	-0.125143	0.839462	0.236983	0.086538	-0.887332	-0.050782	0.545498	0.737743	0.136966	0.019257	-0.300005	0.115275	-0.545498	0.798386	0.138654	0.273848	-0.187561	-0.148444	0.729621	0.757542	0.667847	0.658178	-0.391060
-146.000000	0.608221	0.085120	0.697635	0.366168	-0.025849	-0.520917	-0.215292	0.732290	0.158692	-0.056237	-0.514154	-0.405292	0.763568	0.033967	-0.029395	-0.895706	-0.393991	0.572434	0.643446	0.003249	-0.116919	-0.474315	0.145434	-0.572434	0.712694	0.011410	0.157895	-0.356869	-0.312364	0.607367	0.575659	0.420737	0.733999	-0.518559
-145.000000	0.629568	-0.024658	0.688446	0.351497	-0.164003	-0.638830	-0.330597	0.718487	0.092717	-0.112419	-0.608612	-0.534020	0.755647	-0.024871	-0.086332	-0.834260	-0.710041	0.551080	0.640637	-0.040306	-0.164061	-0.656983	0.227110	-0.551080	0.679321	-0.034912	0.105605	-0.486465	-0.383273	0.522778	0.461556	0.259210	0.717846	-0.696863
-144.000000	0.545473	-0.067771	0.678796	0.348051	-0.275380	-0.750303	-0.427139	0.715090	0.109441	-0.150455	-0.614344	-0.527060	0.728228	0.045440	-0.078232	-0.672314	-0.907036	0.450245	0.637720	-0.024001	-0.135792	-0.719703	0.265475	-0.450245	0.632243	-0.044138	0.094694	-0.510040	-0.338389	0.474476	0.440102	0.256023	0.636917	-0.814668
-143.000000	0.366290	-0.078472	0.614759	0.343055	-0.334295	-0.806296	-0.485070	0.660113	0.190899	-0.133969	-0.496157	-0.460346	0.631394	0.259085	0.028866	-0.348994	-0.908701	0.320979	0.580818	0.077133	-0.033750	-0.556093	0.214319	-0.320979	0.552276	-0.005000	0.146692	-0.372586	-0.166118	0.468721	0.499108	0.389081	0.547087	-0.758556
-142.000000	0.156888	-0.149760	0.476449	0.314452	-0.366614	-0.818884	-0.577154	0.531358	0.324985	-0.073440	-0.296620	-0.499097	0.469707	0.596782	0.168646	0.143965	-0.754033	0.198032	0.446356	0.257945	0.079284	-0.241847	0.067749	-0.198032	0.430610	0.042687	0.210703	-0.171460	-0.014762	0.400155	0.505493	0.457080	0.494189	-0.519414
-141.000000	-0.040075	-0.315658	0.309289	0.243573	-0.406464	-0.832659	-0.685853	0.364755	0.460536	-0.040617	-0.135841	-0.613624	0.295731	0.896211	0.247771	0.595824	-0.578506	0.087373	0.276226	0.412112	0.113703	0.060608	-0.155519	-0.087373	0.277773	0.026535	0.187304	-0.068491	-0.083260	0.151958	0.299518	0.228985	0.432186	-0.210017
-140.000000	-0.214668	-0.523634	0.173862	0.149920	-0.437726	-0.822120	-0.711531	0.214177	0.520700	-0.085010	-0.128267	-0.596214	0.153636	0.932677	0.229026	0.655052	-0.506407	-0.002759	0.124470	0.401416	0.026426	0.213363	-0.360916	0.002759	0.131891	-0.086575	0.040203	-0.121793	-0.386181	-0.206962	-0.082255	-0.270166	0.284731	0.088324
-139.000000	-0.409881	-0.745182	0.056511	0.046816	-0.436270	-0.782976	-0.697212	0.078482	0.479405	-0.183603	-0.279512	-0.459247	0.017779	0.696256	0.124734	0.265902	-0.626035	-0.031728	-0.012477	0.227425	-0.148799	0.182027	-0.430108	0.031728	-0.006068	-0.260024	-0.178539	-0.280292	-0.776245	-0.509381	-0.443535	-0.780819	0.075566	0.350954
-138.000000	-0.552884	-0.844913	-0.005648	0.031281	-0.351646	-0.722075	-0.667661	0.012025	0.458521	-0.213851	-0.434942	-0.333825	-0.055354	0.482268	0.061781	-0.237961	-0.866877	0.075756	-0.080805	0.090156	-0.273934	0.121515	-0.297455	-0.075756	-0.087338	-0.355758	-0.318219	-0.395091	-1.075615	-0.607797	-0.600371	-1.046672	-0.149454	0.482525
-137.000000	-0.506541	-0.713034	0.085993	0.180359	-0.136459	-0.564153	-0.531243	0.108120	0.563489	-0.072598	-0.414736	-0.209320	0.047052	0.508611	0.152879	-0.494873	-0.941403	0.262560	0.008503	0.139017	-0.226229	0.179659	-0.002235	-0.262560	-0.017960	-0.273988	-0.284380	-0.342476	-1.161194	-0.464315	-0.513412	-0.984955	-0.381305	0.410254
-136.000000	-0.319092	-0.485640	0.288765	0.377039	0.134032	-0.312824	-0.338947	0.303754	0.700212	0.160585	-0.249489	-0.117905	0.255838	0.663591	0.303574	-0.468459	-0.854479	0.399629	0.204665	0.292952	-0.088109	0.237321	0.221202	-0.399630	0.165332	-0.100170	-0.190091	-0.230728	-1.086021	-0.275243	-0.375671	-0.789587	-0.563368	0.203262
-135.000000	-0.127900	-0.286016	0.473462	0.484592	0.337522	-0.091810	-0.237332	0.479507	0.775836	0.342259	-0.086427	-0.132798	0.446043	0.760099	0.372831	-0.299845	-0.791351	0.426266	0.387914	0.406104	-0.004016	0.139511	0.222604	-0.426266	0.351244	0.023379	-0.160736	-0.219961	-0.943815	-0.196598	-0.317294	-0.632848	-0.594649	-0.048588
-134.000000	0.037861	-0.077928	0.610905	0.519051	0.473770	0.069993	-0.200518	0.614613	0.825571	0.462883	0.033479	-0.158070	0.602999	0.790644	0.371766	-0.067066	-0.668809	0.318154	0.547476	0.473457	0.041642	-0.096650	0.067454	-0.318154	0.526980	0.113579	-0.167193	-0.317899	-0.734504	-0.148852	-0.255724	-0.460834	-0.475917	-0.259871
-133.000000	0.216009	0.164401	0.675125	0.531175	0.579111	0.202236	-0.134973	0.679262	0.854321	0.549953	0.097614	-0.072702	0.689952	0.789052	0.354158	0.077126	-0.436968	0.114275	0.656782	0.527356	0.094739	-0.337350	-0.114342	-0.114275	0.659110	0.225428	-0.138613	-0.412924	-0.493167	-0.084240	-0.153717	-0.248797	-0.281471	-0.354683
-132.000000	0.328286	0.304198	0.570627	0.473426	0.594088	0.234686	-0.107569	0.575309	0.794239	0.538482	0.059944	0.022840	0.591764	0.739686	0.302662	0.014303	-0.259724	-0.081071	0.587793	0.528584	0.097055	-0.473356	-0.243595	0.081072	0.615797	0.292193	-0.100540	-0.435941	-0.329245	-0.051367	-0.051018	-0.040157	-0.069504	-0.359587
-131.000000	0.261738	0.192070	0.296095	0.309569	0.490370	0.147783	-0.191856	0.290245	0.652267	0.422198	-0.032632	0.007221	0.290550	0.748265	0.239406	-0.082312	-0.219234	-0.184110	0.341024	0.548176	0.050503	-0.455802	-0.367473	0.184110	0.386296	0.311879	-0.087508	-0.391840	-0.255632	-0.031284	0.057833	0.189704	0.047283	-0.317256
-130.000000	0.041844	-0.102766	-0.009487	0.094351	0.327396	0.013386	-0.351550	-0.020173	0.518288	0.305486	-0.055310	-0.122994	-0.046177	0.937263	0.251867	0.047650	-0.324272	-0.177681	0.076758	0.726686	0.062447	-0.245896	-0.534143	0.177681	0.125426	0.390106	-0.037089	-0.272763	-0.186779	0.033238	0.189618	0.446121	0.003997	-0.217525
-129.000000	-0.287858	-0.443353	-0.237427	-0.151270	0.106653	-0.222431	-0.599274	-0.234960	0.363626	0.197147	0.012647	-0.443543	-0.282656	1.111285	0.277978	0.474053	-0.603959	-0.086537	-0.120070	0.936165	0.113749	0.029864	-0.710219	0.086537	-0.071079	0.478495	0.029411	-0.159062	-0.138240	0.077694	0.269059	0.584236	-0.129930	-0.072466
-128.000000	-0.619665	-0.676872	-0.345937	-0.367291	-0.126332	-0.542862	-0.850797	-0.331825	0.162295	0.077188	0.123771	-0.830929	-0.383153	0.995255	0.231899	1.050798	-0.802353	0.053487	-0.232346	0.953407	0.124848	0.129696	-0.718248	-0.053487	-0.184307	0.474050	0.048133	-0.159850	-0.123260	0.051272	0.236468	0.508254	-0.297871	0.083883
-127.000000	-0.780414	-0.698025	-0.299908	-0.442885	-0.277040	-0.754188	-0.925353	-0.277983	0.014055	-0.019536	0.214419	-0.970401	-0.320345	0.634171	0.160500	1.418399	-0.709725	0.203659	-0.223393	0.775751	0.110649	-0.001057	-0.475730	-0.203659	-0.172210	0.412012	0.040891	-0.255975	-0.098712	0.018063	0.161112	0.317594	-0.390278	0.239466
-126.000000	-0.800263	-0.642094	-0.143426	-0.426702	-0.398901	-0.825725	-0.872032	-0.109657	-0.069192	-0.137038	0.148639	-0.895617	-0.140472	0.197417	0.046212	1.249471	-0.594554	0.341949	-0.118108	0.479420	0.040628	-0.300284	-0.225267	-0.341949	-0.047931	0.320040	-0.024297	-0.410732	-0.108503	-0.000196	0.097602	0.134430	-0.236083	0.356702
-125.000000	-0.826322	-0.695963	-0.021981	-0.472865	-0.584876	-0.913280	-0.906966	0.018493	-0.172219	-0.355858	-0.130151	-0.896780	0.016227	-0.218510	-0.154634	0.626092	-0.759569	0.448539	-0.029205	0.124257	-0.141915	-0.754598	-0.184864	-0.448539	0.068078	0.189071	-0.198030	-0.666614	-0.202411	-0.040862	0.012880	-0.005148	0.178241	0.421206
-124.000000	-0.877650	-0.852709	-0.030064	-0.621059	-0.811108	-1.056567	-1.053122	0.011871	-0.332454	-0.641038	-0.544870	-1.008436	0.043860	-0.543207	-0.398072	-0.187812	-1.170673	0.482853	-0.032330	-0.199587	-0.384625	-1.261916	-0.313567	-0.482853	0.075463	0.042063	-0.428191	-0.983278	-0.310694	-0.125147	-0.108724	-0.120681	0.690237	0.526581
-123.000000	-0.872348	-0.968478	-0.073770	-0.763144	-0.978286	-1.139929	-1.130607	-0.033254	-0.510732	-0.874628	-1.025472	-1.035313	0.012502	-0.748163	-0.613651	-1.179280	-1.624887	0.444711	-0.054615	-0.405180	-0.589224	-1.670168	-0.473881	-0.444711	0.032983	-0.061162	-0.600024	-1.212658	-0.320483	-0.181886	-0.186466	-0.163563	1.143190	0.701825
-122.000000	-0.815794	-1.032970	-0.057549	-0.838113	-1.063984	-1.158757	-1.144848	-0.035890	-0.671377	-1.011879	-1.484514	-1.028608	0.006130	-0.848061	-0.777520	-2.230412	-2.021298	0.317469	-0.023186	-0.477741	-0.729978	-1.934427	-0.621672	-0.317469	0.029134	-0.094624	-0.662474	-1.305303	-0.245029	-0.174289	-0.183745	-0.115944	1.470364	0.858021
-121.000000	-0.823872	-1.189060	-0.066743	-0.920576	-1.152477	-1.221505	-1.239456	-0.075371	-0.836267	-1.113277	-1.826429	-1.145497	-0.042122	-0.880444	-0.928716	-2.966697	-2.327736	0.083624	-0.003773	-0.486939	-0.857429	-2.122369	-0.806747	-0.083624	0.019572	-0.119386	-0.705746	-1.367115	-0.183964	-0.219735	-0.236027	-0.142636	1.652254	0.958670
-120.000000	-0.836011	-1.344110	-0.116731	-0.986669	-1.201601	-1.258162	-1.322907	-0.135255	-0.929733	-1.163208	-1.960799	-1.238947	-0.105788	-0.769072	-1.011255	-3.197202	-2.318893	-0.103697	0.003160	-0.398037	-0.933608	-2.259996	-0.961662	0.103697	0.009918	-0.097476	-0.751975	-1.446801	-0.186467	-0.313386	-0.368490	-0.305961	1.696622	0.995915
-119.000000	-0.694677	-1.274397	-0.082433	-0.894237	-1.055877	-1.092845	-1.239047	-0.094867	-0.803738	-1.021754	-1.784382	-1.117693	-0.063570	-0.398989	-0.885751	-2.931589	-1.748044	-0.112922	0.088623	-0.118539	-0.823155	-2.183824	-0.892969	0.112922	0.087448	0.090836	-0.671541	-1.416124	-0.224387	-0.271661	-0.387874	-0.398772	1.559685	0.883502
-118.000000	-0.497362	-1.080235	0.010842	-0.690095	-0.794878	-0.819402	-1.120376	-0.009623	-0.573965	-0.760951	-1.403325	-0.914074	0.029744	-0.048332	-0.657600	-2.367762	-0.972617	-0.021826	0.204166	0.144576	-0.608621	-1.833141	-0.617699	0.021826	0.197087	0.311430	-0.519123	-1.262906	-0.316129	-0.112332	-0.280936	-0.343284	1.219734	0.585010
-117.000000	-0.431283	-0.940920	-0.003448	-0.579575	-0.674358	-0.709926	-1.140421	-0.028823	-0.501976	-0.651109	-1.106828	-0.867598	0.020354	-0.092759	-0.600102	-1.839042	-0.625115	0.037583	0.213296	0.090714	-0.544326	-1.438151	-0.288146	-0.037583	0.197199	0.292545	-0.511016	-1.162312	-0.555422	-0.061204	-0.258961	-0.340833	0.816483	0.245325
-116.000000	-0.503080	-0.809420	-0.159663	-0.633396	-0.744990	-0.816470	-1.222747	-0.174500	-0.620266	-0.754936	-1.035115	-0.984746	-0.122026	-0.448986	-0.763288	-1.512266	-0.786733	0.043366	0.085811	-0.240202	-0.680043	-1.149054	0.042421	-0.043366	0.070725	0.025564	-0.682606	-1.146214	-0.892018	-0.200667	-0.399787	-0.488093	0.483313	0.008254
-115.000000	-0.564343	-0.592886	-0.293425	-0.716515	-0.817400	-0.923069	-1.162219	-0.303451	-0.770774	-0.872238	-1.034444	-1.033950	-0.241592	-0.812314	-0.942456	-1.282416	-0.906545	0.082304	-0.044247	-0.563530	-0.832840	-0.931952	0.341217	-0.082304	-0.033399	-0.248787	-0.841539	-1.083200	-1.088796	-0.361302	-0.534476	-0.611540	0.251830	-0.092607
-114.000000	-0.541818	-0.364915	-0.279186	-0.734643	-0.773611	-0.857863	-0.905327	-0.294420	-0.847952	-0.857347	-0.916671	-0.853485	-0.209399	-1.034978	-0.980327	-1.019812	-0.506411	0.169475	-0.057270	-0.708577	-0.858994	-0.767611	0.443806	-0.169475	-0.016499	-0.365822	-0.836362	-0.925800	-1.014337	-0.387832	-0.521443	-0.564086	0.129841	-0.057410
-113.000000	-0.542089	-0.296186	-0.194137	-0.749292	-0.683610	-0.673220	-0.618985	-0.214608	-0.876840	-0.776140	-0.730684	-0.541490	-0.108487	-1.127262	-0.906452	-0.773367	0.166918	0.208482	0.006585	-0.718034	-0.774095	-0.614176	0.101922	-0.208482	0.056723	-0.351188	-0.719024	-0.714633	-0.789900	-0.309551	-0.415404	-0.405215	0.021591	0.073519
-112.000000	-0.595315	-0.368944	-0.098970	-0.750357	-0.601953	-0.435391	-0.368102	-0.115120	-0.850770	-0.673904	-0.560835	-0.178208	-0.006378	-1.074015	-0.768333	-0.588680	0.733094	0.179053	0.113394	-0.634518	-0.619830	-0.466849	-0.560514	-0.179053	0.150551	-0.248095	-0.555222	-0.514502	-0.591950	-0.162860	-0.284991	-0.225885	-0.190891	0.261081
-111.000000	-0.653808	-0.474389	0.018603	-0.682718	-0.523771	-0.198076	-0.144962	0.017682	-0.742329	-0.541885	-0.394070	0.179957	0.102956	-0.895707	-0.595917	-0.421747	1.112085	0.121132	0.240725	-0.490735	-0.450699	-0.384378	-1.115319	-0.121132	0.258006	-0.116061	-0.381985	-0.411936	-0.507185	0.003303	-0.176945	-0.118051	-0.425749	0.488811
-110.000000	-0.711205	-0.590505	0.096135	-0.579704	-0.480115	-0.087062	-0.029319	0.110367	-0.623647	-0.442163	-0.236574	0.390467	0.159097	-0.715019	-0.453820	-0.237825	1.256293	0.059300	0.296345	-0.383151	-0.339665	-0.332376	-1.360934	-0.059300	0.307619	-0.064311	-0.265849	-0.390098	-0.483282	0.083871	-0.152606	-0.130546	-0.538097	0.657566
-109.000000	-0.737116	-0.716235	0.104670	-0.510123	-0.528333	-0.157812	-0.047090	0.112547	-0.571888	-0.445180	-0.160806	0.387247	0.135966	-0.618515	-0.404569	-0.095847	1.158760	0.103499	0.255053	-0.374022	-0.328806	-0.252649	-1.352305	-0.103499	0.261030	-0.137837	-0.239101	-0.375630	-0.421583	0.049219	-0.219713	-0.209392	-0.511873	0.663702
-108.000000	-0.698557	-0.786522	0.083487	-0.526504	-0.671992	-0.383754	-0.148082	0.067621	-0.610940	-0.560168	-0.228891	0.207666	0.077445	-0.650029	-0.452707	-0.067189	0.817826	0.290393	0.161389	-0.467936	-0.427388	-0.179340	-1.220921	-0.290393	0.158006	-0.291314	-0.293540	-0.373521	-0.325700	-0.044970	-0.328835	-0.300186	-0.366718	0.544497
-107.000000	-0.556390	-0.656198	0.073677	-0.578227	-0.813077	-0.647389	-0.229103	0.045906	-0.688357	-0.692259	-0.332745	-0.023195	0.049623	-0.762582	-0.509894	-0.039417	0.210160	0.479453	0.086853	-0.596214	-0.547760	-0.169294	-0.972980	-0.479453	0.087888	-0.415924	-0.360226	-0.379275	-0.187024	-0.109036	-0.394235	-0.322178	-0.164556	0.387459
-106.000000	-0.330903	-0.371916	0.090194	-0.583006	-0.859488	-0.766298	-0.222686	0.074092	-0.722830	-0.738918	-0.305599	-0.212308	0.079643	-0.831176	-0.498996	0.123382	-0.484887	0.543092	0.075744	-0.659842	-0.589288	-0.199553	-0.479436	-0.543092	0.091697	-0.436078	-0.355074	-0.338619	0.057365	-0.086525	-0.343073	-0.181677	-0.049814	0.222988
-105.000000	-0.133398	-0.172439	0.102336	-0.550610	-0.818106	-0.686726	-0.164170	0.111067	-0.725476	-0.721245	-0.209883	-0.336976	0.115338	-0.820299	-0.471587	0.260334	-0.984132	0.452460	0.082731	-0.647835	-0.575984	-0.219289	0.225571	-0.452461	0.106296	-0.402060	-0.296835	-0.253593	0.350741	-0.002749	-0.181610	0.110925	-0.087785	0.064704
-104.000000	-0.031063	-0.141383	0.054316	-0.537761	-0.758683	-0.513721	-0.107292	0.080857	-0.751264	-0.736999	-0.280466	-0.355034	0.071712	-0.781409	-0.537148	-0.013802	-1.319947	0.245126	0.020196	-0.639009	-0.623169	-0.302582	0.929490	-0.245126	0.033565	-0.420955	-0.310034	-0.226041	0.510223	0.016602	-0.057783	0.349097	-0.196790	-0.026592
-103.000000	-0.025494	-0.184395	-0.094970	-0.564212	-0.730411	-0.352549	-0.067029	-0.066598	-0.799467	-0.812457	-0.560620	-0.299889	-0.098038	-0.711744	-0.697932	-0.727730	-1.601855	-0.034631	-0.156091	-0.663214	-0.770447	-0.513082	1.417692	0.034631	-0.149806	-0.507257	-0.444391	-0.326019	0.447060	-0.113646	-0.115050	0.336463	-0.288329	0.014028
-102.000000	-0.090736	-0.205232	-0.285492	-0.578754	-0.698671	-0.237344	-0.033735	-0.262845	-0.802414	-0.865180	-0.812860	-0.222353	-0.318694	-0.526087	-0.826529	-1.381352	-1.627088	-0.313457	-0.355297	-0.610012	-0.902176	-0.718224	1.511359	0.313457	-0.345600	-0.556088	-0.593929	-0.468737	0.248182	-0.317053	-0.308875	0.106419	-0.320942	0.215379
-101.000000	-0.168647	-0.185672	-0.394773	-0.515012	-0.612050	-0.167270	-0.008103	-0.376094	-0.700815	-0.802639	-0.838985	-0.101830	-0.449073	-0.225712	-0.808914	-1.595105	-1.242090	-0.503327	-0.449385	-0.413893	-0.905703	-0.729219	1.139729	0.503327	-0.443137	-0.498246	-0.638788	-0.497176	0.040795	-0.470108	-0.483192	-0.173479	-0.238909	0.531208
-100.000000	-0.206234	-0.108242	-0.364226	-0.354931	-0.447900	-0.079268	0.052412	-0.344093	-0.510138	-0.597931	-0.623634	0.090620	-0.414952	0.049292	-0.636222	-1.377853	-0.532258	-0.544904	-0.388647	-0.187108	-0.758530	-0.459104	0.437415	0.544904	-0.393594	-0.346010	-0.527977	-0.321727	-0.070592	-0.441390	-0.476087	-0.275431	-0.039717	0.823492
-99.000000	-0.229670	0.041821	-0.255271	-0.175479	-0.245882	0.069818	0.190092	-0.237341	-0.305604	-0.350086	-0.272426	0.360467	-0.288154	0.182375	-0.405764	-0.898877	0.374275	-0.424444	-0.248475	-0.061970	-0.536504	-0.050362	-0.310094	0.424444	-0.260626	-0.177940	-0.347772	-0.043275	-0.064587	-0.224793	-0.311126	-0.179887	0.143074	0.991081
-98.000000	-0.346311	0.135240	-0.189344	-0.129454	-0.159053	0.158828	0.290695	-0.189310	-0.247373	-0.244976	0.017207	0.528268	-0.209844	0.063146	-0.299064	-0.364591	1.182819	-0.240418	-0.171833	-0.144938	-0.423841	0.218314	-0.893599	0.240418	-0.191754	-0.157334	-0.280122	0.118869	-0.044641	-0.028335	-0.189662	-0.091180	0.162831	1.006113
-97.000000	-0.598499	0.066543	-0.227785	-0.275814	-0.279681	0.077650	0.225498	-0.243197	-0.441720	-0.360812	0.153413	0.390821	-0.244027	-0.374242	-0.386814	0.154156	1.560390	-0.138378	-0.219249	-0.483400	-0.509434	0.295890	-1.220136	0.138378	-0.258038	-0.369751	-0.375555	0.118200	-0.094545	-0.002218	-0.182634	-0.050323	0.038592	0.865232
-96.000000	-0.817570	-0.015945	-0.332995	-0.484038	-0.480936	-0.069482	0.115283	-0.340885	-0.723242	-0.550774	0.255142	0.097976	-0.341543	-0.894420	-0.521271	0.729162	1.549836	-0.121019	-0.352232	-0.889305	-0.643603	0.341996	-1.137952	0.121020	-0.405307	-0.670629	-0.500359	0.089548	-0.168431	-0.065883	-0.196532	0.033690	-0.117450	0.612617
-95.000000	-0.805657	0.020262	-0.394169	-0.588389	-0.587821	-0.117828	0.130421	-0.385355	-0.863840	-0.643767	0.362898	-0.073007	-0.389038	-1.180886	-0.582628	1.188630	1.345717	-0.058333	-0.453170	-1.109836	-0.680639	0.382704	-0.639832	0.058333	-0.500561	-0.843563	-0.548616	0.087027	-0.189377	-0.099439	-0.181336	0.140326	-0.224091	0.335957
-94.000000	-0.682354	0.042998	-0.403400	-0.630882	-0.654491	-0.091598	0.205449	-0.393122	-0.897222	-0.710734	0.287362	-0.039344	-0.399039	-1.238987	-0.647460	1.079245	1.059070	0.035386	-0.492986	-1.151386	-0.698298	0.245086	-0.127281	-0.035386	-0.515232	-0.887133	-0.600431	0.020060	-0.175328	-0.135742	-0.221175	0.132272	-0.277514	0.128918
-93.000000	-0.649146	-0.038413	-0.442554	-0.729231	-0.794535	-0.104193	0.210400	-0.444714	-0.949075	-0.853821	0.009630	0.125969	-0.448668	-1.201907	-0.781874	0.420081	0.873800	0.047385	-0.541965	-1.124058	-0.785517	-0.065972	-0.068305	-0.047385	-0.530670	-0.896507	-0.723558	-0.126422	-0.168577	-0.232924	-0.367152	-0.013091	-0.302960	0.057388
-92.000000	-0.683985	-0.108106	-0.487613	-0.851026	-0.938289	-0.186978	0.114328	-0.489821	-1.006024	-0.988623	-0.243325	0.251761	-0.496633	-1.127412	-0.908126	-0.220913	0.771376	0.006401	-0.578981	-1.044239	-0.874081	-0.315219	-0.515524	-0.006401	-0.543234	-0.865039	-0.843461	-0.252435	-0.175334	-0.334479	-0.516273	-0.159166	-0.262238	0.148010
-91.000000	-0.717013	-0.047790	-0.505679	-0.929205	-1.001072	-0.303576	0.009860	-0.495033	-1.046014	-1.042909	-0.401420	0.258094	-0.520203	-1.086773	-0.966833	-0.587412	0.560214	-0.039121	-0.581291	-0.948852	-0.907876	-0.398907	-1.081813	0.039121	-0.540470	-0.798421	-0.918127	-0.305346	-0.188399	-0.367540	-0.571855	-0.226142	-0.198181	0.381792
-90.000000	-0.671702	0.137890	-0.471590	-0.904163	-0.935303	-0.300107	0.059048	-0.450277	-1.033963	-0.996330	-0.486825	0.286348	-0.488558	-1.043603	-0.944704	-0.760036	0.403492	-0.096020	-0.534854	-0.845216	-0.874873	-0.335084	-1.294588	0.096020	-0.502672	-0.696328	-0.922813	-0.278028	-0.172573	-0.302926	-0.519590	-0.190775	-0.252652	0.625274
-89.000000	-0.516964	0.323636	-0.361857	-0.767983	-0.731102	-0.088623	0.265137	-0.338939	-0.912425	-0.818486	-0.428477	0.392580	-0.370053	-0.891763	-0.819978	-0.689095	0.488532	-0.142594	-0.417249	-0.679674	-0.750557	-0.162091	-0.979555	0.142594	-0.392396	-0.530778	-0.822678	-0.170497	-0.127237	-0.124309	-0.353159	-0.024525	-0.403533	0.687759
-88.000000	-0.342856	0.411425	-0.259664	-0.603480	-0.458359	0.174136	0.448576	-0.253150	-0.703239	-0.535924	-0.184339	0.406981	-0.265697	-0.648809	-0.607474	-0.291720	0.487821	-0.143115	-0.310883	-0.471398	-0.564312	0.095487	-0.362953	0.143115	-0.293421	-0.342427	-0.657180	0.024346	-0.079692	0.090081	-0.135123	0.231673	-0.470270	0.538523
-87.000000	-0.176666	0.476034	-0.182452	-0.385945	-0.135812	0.382700	0.555067	-0.195224	-0.371701	-0.183599	0.170803	0.313161	-0.194372	-0.308001	-0.315628	0.305057	0.196522	-0.091755	-0.241032	-0.215368	-0.340067	0.440529	0.318011	0.091755	-0.236540	-0.141887	-0.433451	0.315575	0.072980	0.255379	0.072717	0.508331	-0.424912	0.295299
-86.000000	0.024321	0.573650	-0.062695	-0.060128	0.247913	0.593505	0.684775	-0.075025	0.089193	0.210693	0.563571	0.297220	-0.071112	0.127207	0.040626	0.902813	-0.013956	-0.002577	-0.133238	0.105574	-0.073935	0.748231	0.961988	0.002577	-0.145245	0.110064	-0.155026	0.624805	0.431524	0.404735	0.303554	0.766192	-0.405028	0.046285
-85.000000	0.172318	0.581641	0.027231	0.207480	0.552413	0.715632	0.752914	0.027881	0.431693	0.506732	0.897596	0.310780	0.030754	0.434068	0.300130	1.376269	0.030763	0.089985	-0.056709	0.331713	0.104044	0.802472	1.252133	-0.089985	-0.077740	0.307596	0.014155	0.764768	0.794180	0.494242	0.482056	0.915322	-0.401520	-0.195727
-84.000000	0.162296	0.436617	0.002732	0.247778	0.642276	0.610756	0.617671	0.004807	0.461738	0.574634	1.030369	0.219785	-0.003689	0.445230	0.321685	1.577383	0.198566	0.125327	-0.107704	0.329468	0.070676	0.574579	0.949100	-0.125327	-0.118104	0.324476	-0.041568	0.655352	0.904361	0.470457	0.507294	0.895077	-0.307098	-0.403678
-83.000000	0.077835	0.234089	-0.052356	0.148665	0.597720	0.411547	0.400903	-0.069000	0.318489	0.489205	0.968290	0.168818	-0.096981	0.295380	0.184913	1.409985	0.488918	0.077454	-0.184648	0.198141	-0.075347	0.248194	0.244970	-0.077454	-0.189174	0.228473	-0.202056	0.411900	0.743363	0.426430	0.431878	0.740980	-0.141751	-0.486127
-82.000000	0.033814	0.061003	-0.075000	0.049766	0.532601	0.326254	0.279768	-0.111074	0.183807	0.391417	0.812037	0.265976	-0.148363	0.167015	0.035424	0.975566	0.828479	-0.036967	-0.194220	0.087792	-0.187928	0.012148	-0.527367	0.036967	-0.205663	0.128453	-0.324386	0.161685	0.388990	0.395154	0.293302	0.461601	0.010865	-0.436943
-81.000000	0.055462	-0.016311	-0.091536	-0.009020	0.494384	0.367955	0.249824	-0.129473	0.090802	0.342551	0.702692	0.368869	-0.154885	0.113492	-0.009965	0.657668	1.078976	-0.142260	-0.172963	0.061547	-0.189287	0.039325	-1.087359	0.142260	-0.170091	0.093065	-0.338641	0.035187	-0.001467	0.361861	0.134737	0.142938	0.149919	-0.350004
-80.000000	0.142426	0.054418	-0.065818	0.005820	0.504072	0.428999	0.255144	-0.094163	0.076738	0.367968	0.718537	0.417474	-0.099281	0.143819	0.080256	0.696504	1.186468	-0.143056	-0.127093	0.118657	-0.084307	0.327907	-1.309822	0.143056	-0.100371	0.147402	-0.223525	0.099122	-0.215015	0.352387	0.052356	-0.043451	0.316769	-0.258866
-79.000000	0.218815	0.147751	-0.010669	0.044369	0.491653	0.445798	0.289147	-0.032339	0.122040	0.420570	0.707270	0.501790	-0.029013	0.184172	0.169993	0.766942	1.138412	-0.131324	-0.088876	0.167077	-0.000350	0.518983	-1.240790	0.131324	-0.053887	0.176710	-0.095721	0.181500	-0.221339	0.297399	0.022823	-0.092521	0.467664	-0.114991
-78.000000	0.202290	0.125626	-0.005285	0.018079	0.403625	0.434707	0.365422	-0.023764	0.137162	0.402922	0.539324	0.642122	-0.027624	0.158283	0.136408	0.542446	1.049380	-0.254916	-0.107654	0.121830	-0.019048	0.337153	-0.839183	0.254916	-0.083114	0.106151	-0.074104	0.109995	-0.169382	0.137998	-0.030544	-0.111602	0.543338	0.094846
-77.000000	0.093306	-0.004105	-0.075682	-0.072626	0.248884	0.373705	0.431335	-0.098262	0.106508	0.272986	0.248022	0.732062	-0.119018	0.093881	-0.006217	0.059895	1.030189	-0.470559	-0.184986	0.016309	-0.116414	-0.085091	-0.038826	0.470559	-0.182508	-0.000444	-0.148955	-0.062541	-0.134223	-0.053198	-0.104737	-0.127016	0.486224	0.284104
-76.000000	-0.130106	-0.251130	-0.242158	-0.259856	-0.017646	0.183057	0.353516	-0.279495	-0.003531	0.023629	-0.128248	0.618573	-0.302048	-0.021117	-0.229281	-0.559438	0.899437	-0.673184	-0.343961	-0.118391	-0.292076	-0.519960	0.912870	0.673184	-0.345417	-0.129510	-0.290208	-0.223319	-0.088367	-0.229194	-0.183378	-0.103523	0.299898	0.432368
-75.000000	-0.437755	-0.560118	-0.483360	-0.552333	-0.378581	-0.093933	0.154255	-0.524463	-0.237440	-0.300768	-0.542366	0.337242	-0.534055	-0.223511	-0.508840	-1.250200	0.428421	-0.769849	-0.561673	-0.300098	-0.535790	-0.918566	1.581786	0.769849	-0.549545	-0.309059	-0.483865	-0.368887	-0.092908	-0.438097	-0.292783	-0.083475	0.145658	0.600541
-74.000000	-0.635948	-0.718611	-0.679887	-0.784396	-0.646748	-0.278007	0.052975	-0.705478	-0.475068	-0.545384	-0.828840	0.145320	-0.719453	-0.435700	-0.726536	-1.821647	-0.125164	-0.729342	-0.737026	-0.473113	-0.727134	-1.207751	1.810297	0.729342	-0.711102	-0.481752	-0.657678	-0.486447	-0.205797	-0.651027	-0.419668	-0.114190	0.116392	0.744477
-73.000000	-0.583088	-0.645334	-0.721852	-0.798703	-0.661426	-0.221842	0.169115	-0.734461	-0.535766	-0.579640	-0.827407	0.194717	-0.758560	-0.506306	-0.770639	-1.980230	-0.353238	-0.635326	-0.774103	-0.527143	-0.757762	-1.275942	1.767221	0.635327	-0.738727	-0.565379	-0.720773	-0.530399	-0.366597	-0.763238	-0.505012	-0.154333	0.109877	0.762956
-72.000000	-0.318712	-0.429267	-0.604944	-0.608403	-0.431021	0.072010	0.420254	-0.608691	-0.380348	-0.411931	-0.540563	0.391660	-0.624461	-0.318020	-0.624519	-1.617818	-0.270719	-0.525663	-0.631173	-0.385368	-0.620114	-1.114242	1.606346	0.525663	-0.600554	-0.507587	-0.629249	-0.486881	-0.493406	-0.742966	-0.506386	-0.171026	0.031174	0.633979
-71.000000	0.006066	-0.160896	-0.405355	-0.343230	-0.077642	0.428496	0.622116	-0.406492	-0.104367	-0.132259	-0.087508	0.501676	-0.393089	0.066161	-0.332875	-0.824363	-0.125665	-0.383529	-0.375620	-0.089181	-0.354578	-0.684541	1.309673	0.383529	-0.372979	-0.313566	-0.394729	-0.290022	-0.504408	-0.609381	-0.388831	-0.109948	-0.015198	0.410853
-70.000000	0.235031	0.050528	-0.209046	-0.143315	0.231912	0.676315	0.652237	-0.232834	0.088100	0.118921	0.340136	0.388617	-0.170120	0.281771	-0.070397	0.064551	-0.096411	-0.238604	-0.150992	0.105244	-0.114296	-0.141596	0.724327	0.238604	-0.185019	-0.157132	-0.167804	-0.017917	-0.435453	-0.468199	-0.236131	0.018833	0.091989	0.183193
-69.000000	0.360618	0.204484	-0.024366	-0.032123	0.409906	0.791416	0.623536	-0.080946	0.082007	0.235173	0.548957	0.252483	0.018442	0.080311	-0.006780	0.514113	-0.178834	-0.127679	0.003423	0.000894	-0.066409	0.129514	-0.184945	0.127679	-0.046452	-0.211828	-0.132675	0.092824	-0.416810	-0.453642	-0.235610	0.024990	0.223594	0.008090
-68.000000	0.462322	0.383683	0.191603	0.082986	0.518626	0.815736	0.689461	0.119817	0.016107	0.273084	0.537766	0.296758	0.216151	-0.261455	-0.052086	0.415024	-0.284473	-0.058854	0.174968	-0.242303	-0.148297	0.058181	-1.149950	0.058854	0.128815	-0.370659	-0.245617	0.022542	-0.415610	-0.505525	-0.386919	-0.172474	0.215921	-0.106084
-67.000000	0.553296	0.574141	0.455385	0.280554	0.656088	0.818614	0.806285	0.382334	0.058307	0.371956	0.516936	0.419975	0.458601	-0.392880	-0.014652	0.255941	-0.395368	-0.039077	0.419889	-0.370402	-0.170147	-0.053113	-1.820269	0.039077	0.372445	-0.422334	-0.310106	-0.047411	-0.314810	-0.477164	-0.506396	-0.404118	0.124730	-0.128447
-66.000000	0.564362	0.712409	0.692630	0.500451	0.812923	0.858730	0.865534	0.618243	0.207818	0.533625	0.574866	0.470910	0.681434	-0.315219	0.101565	0.260127	-0.611886	-0.084398	0.651025	-0.359955	-0.105787	-0.093752	-1.975835	0.084398	0.602593	-0.365592	-0.287920	-0.075312	-0.178772	-0.390859	-0.538100	-0.564039	0.047536	-0.078894
-65.000000	0.495702	0.792100	0.781124	0.631043	0.908135	0.893861	0.842770	0.709626	0.362204	0.649184	0.609951	0.421366	0.765880	-0.184641	0.190761	0.218925	-0.892063	-0.140088	0.739640	-0.323575	-0.062919	-0.187151	-1.578366	0.140088	0.706753	-0.319410	-0.291094	-0.148372	-0.137862	-0.341786	-0.554255	-0.698095	-0.005484	-0.038414
-64.000000	0.390943	0.739076	0.668255	0.600865	0.875474	0.866475	0.727919	0.609380	0.401742	0.636562	0.555665	0.315544	0.656505	-0.126806	0.167476	0.089398	-0.977776	-0.149674	0.633082	-0.370799	-0.123586	-0.311640	-0.958838	0.149674	0.624200	-0.385772	-0.395259	-0.276935	-0.207667	-0.400482	-0.627688	-0.851236	-0.007453	-0.026699
-63.000000	0.197203	0.483322	0.391436	0.376246	0.679983	0.720190	0.519769	0.351582	0.247628	0.469931	0.418320	0.186411	0.394242	-0.209850	-0.012192	-0.008306	-0.799639	-0.153336	0.371903	-0.542228	-0.297839	-0.355029	-0.719115	0.153336	0.384158	-0.593074	-0.596096	-0.415560	-0.360400	-0.606755	-0.801107	-1.028655	0.038930	-0.004890
-62.000000	-0.091805	0.135563	0.074236	0.024653	0.350079	0.395936	0.252363	0.046150	-0.059429	0.194755	0.244477	-0.023614	0.094721	-0.433598	-0.284220	-0.004807	-0.605883	-0.179900	0.084725	-0.784971	-0.523853	-0.297250	-1.112914	0.179900	0.103997	-0.869790	-0.825195	-0.531054	-0.546396	-0.890368	-1.015638	-1.166547	0.065775	0.076576
-61.000000	-0.372777	-0.194742	-0.156650	-0.307178	-0.014836	0.008000	-0.039553	-0.179081	-0.405377	-0.107207	0.060997	-0.338719	-0.134254	-0.724182	-0.558718	0.051074	-0.690693	-0.230439	-0.124800	-1.024039	-0.738200	-0.258950	-1.811496	0.230439	-0.109920	-1.130567	-1.013351	-0.624647	-0.655730	-1.152867	-1.184547	-1.185414	0.053565	0.223372
-60.000000	-0.527930	-0.422742	-0.249425	-0.489044	-0.292888	-0.236846	-0.249370	-0.257882	-0.670069	-0.343623	-0.130679	-0.591491	-0.226149	-0.908872	-0.758798	-0.028678	-0.978034	-0.251864	-0.216268	-1.153254	-0.889165	-0.401032	-2.269258	0.251864	-0.208241	-1.273530	-1.114976	-0.718712	-0.568785	-1.300300	-1.242147	-1.070757	0.071748	0.374239
-59.000000	-0.474743	-0.402844	-0.174595	-0.448625	-0.364344	-0.204103	-0.222474	-0.164566	-0.685361	-0.389624	-0.228976	-0.577896	-0.143299	-0.768076	-0.765400	-0.268244	-1.163098	-0.152601	-0.129473	-1.019999	-0.873407	-0.659831	-2.146450	0.152601	-0.139550	-1.178144	-1.060505	-0.771679	-0.279025	-1.205342	-1.090194	-0.826563	0.167781	0.471590
-58.000000	-0.277909	-0.210281	0.017789	-0.235623	-0.224238	0.063334	-0.007756	0.045713	-0.426532	-0.239268	-0.167266	-0.350510	0.049613	-0.314915	-0.578740	-0.433832	-1.220434	-0.002718	0.097617	-0.656504	-0.691188	-0.845899	-1.574101	0.002718	0.051671	-0.888334	-0.881662	-0.766949	0.044133	-0.950950	-0.818466	-0.564411	0.234197	0.476321
-57.000000	-0.107861	-0.098301	0.179490	-0.010471	-0.032205	0.324236	0.157313	0.222323	-0.119492	-0.067967	-0.077404	-0.119192	0.211433	0.157834	-0.367356	-0.498512	-1.204498	0.046812	0.276809	-0.308703	-0.505258	-0.910271	-0.877055	-0.046812	0.201332	-0.624080	-0.731192	-0.756207	0.242258	-0.768335	-0.655359	-0.451668	0.166327	0.375668
-56.000000	0.009213	-0.062014	0.277499	0.172076	0.145093	0.462396	0.218471	0.328175	0.126203	0.061423	-0.024978	0.100100	0.312368	0.537053	-0.186392	-0.609656	-0.902859	0.031923	0.364319	-0.024785	-0.346215	-0.873243	-0.117454	-0.031923	0.293536	-0.435851	-0.609168	-0.690344	0.359494	-0.615972	-0.548136	-0.405905	0.073372	0.216707
-55.000000	0.156239	0.022496	0.387973	0.362306	0.343887	0.549130	0.270046	0.436524	0.328062	0.199966	0.074036	0.331334	0.414272	0.801918	-0.006612	-0.677153	-0.246214	0.099094	0.467879	0.230650	-0.169836	-0.772955	0.706506	-0.099094	0.415384	-0.249907	-0.452324	-0.535548	0.476808	-0.378057	-0.352652	-0.284215	0.115679	0.092201
-54.000000	0.302519	0.161239	0.516219	0.538474	0.498732	0.551032	0.274031	0.562066	0.418052	0.297775	0.218498	0.387606	0.532047	0.693780	0.093840	-0.512509	0.287288	0.299214	0.593991	0.235341	-0.068909	-0.662044	1.389464	-0.299215	0.553544	-0.170915	-0.351611	-0.405963	0.540404	-0.178741	-0.198430	-0.211092	0.301983	0.133941
-53.000000	0.325022	0.296894	0.577707	0.614296	0.531122	0.409110	0.162500	0.631312	0.363802	0.298409	0.321266	0.160217	0.591668	0.152449	0.052391	-0.144636	0.235917	0.491579	0.649094	-0.137381	-0.114032	-0.551025	1.840968	-0.491579	0.630696	-0.310582	-0.379678	-0.374973	0.518241	-0.157333	-0.242335	-0.338926	0.502333	0.378814
-52.000000	0.236743	0.405218	0.497994	0.541635	0.451601	0.210548	0.012270	0.559957	0.204117	0.213448	0.294676	-0.163651	0.509718	-0.478821	-0.092702	0.144787	-0.178945	0.509759	0.563117	-0.639472	-0.255972	-0.481504	2.255611	-0.509759	0.579942	-0.563292	-0.474831	-0.398014	0.492795	-0.246914	-0.390127	-0.525661	0.533503	0.667503
-51.000000	0.188823	0.520546	0.354008	0.410537	0.357874	0.098294	-0.057522	0.412207	0.032053	0.108117	0.110421	-0.353044	0.355282	-0.858037	-0.229992	0.047288	-0.476803	0.425276	0.405353	-0.937580	-0.390242	-0.538141	2.793324	-0.425276	0.440703	-0.724895	-0.520921	-0.421134	0.520354	-0.267192	-0.443851	-0.530995	0.396420	0.845102
-50.000000	0.238788	0.640052	0.265319	0.340746	0.342792	0.152465	0.000456	0.310444	-0.068070	0.055016	-0.112826	-0.355369	0.255736	-0.910965	-0.274000	-0.391432	-0.533389	0.386782	0.286344	-0.955235	-0.445072	-0.685240	3.381465	-0.386782	0.309706	-0.729058	-0.475319	-0.423355	0.548665	-0.175675	-0.364453	-0.390226	0.302127	0.913736
-49.000000	0.342883	0.718767	0.217091	0.335590	0.388493	0.287678	0.157249	0.245143	-0.108403	0.038003	-0.241253	-0.237009	0.207795	-0.785353	-0.253514	-0.803335	-0.516595	0.441916	0.191579	-0.848857	-0.434452	-0.790140	3.731363	-0.441916	0.192997	-0.674319	-0.409547	-0.426431	0.481380	-0.087126	-0.287314	-0.321013	0.309972	0.908885
-48.000000	0.452097	0.703900	0.180949	0.357173	0.429449	0.342426	0.305320	0.191250	-0.101292	0.026688	-0.283491	-0.086487	0.170260	-0.620445	-0.221802	-1.003067	-0.627351	0.545355	0.112550	-0.720323	-0.395270	-0.821193	3.542637	-0.545355	0.094222	-0.611994	-0.361762	-0.464612	0.298104	-0.065789	-0.285137	-0.402519	0.309769	0.813987
-47.000000	0.523166	0.622883	0.169713	0.384584	0.445648	0.274487	0.340045	0.173715	-0.053608	0.043822	-0.231887	-0.004668	0.161178	-0.445135	-0.183959	-0.974015	-0.804142	0.582028	0.080772	-0.565230	-0.323743	-0.757045	2.852117	-0.582028	0.049815	-0.506299	-0.276461	-0.469411	0.078452	-0.068532	-0.289321	-0.528459	0.327557	0.662520
-46.000000	0.508313	0.525878	0.130330	0.363008	0.430212	0.116612	0.216451	0.136569	-0.032920	0.071579	-0.026672	-0.107947	0.136901	-0.285792	-0.129467	-0.614344	-0.858062	0.498685	0.034232	-0.418009	-0.215881	-0.526260	1.962370	-0.498685	0.004333	-0.383848	-0.154009	-0.359030	-0.106166	-0.040991	-0.245477	-0.567964	0.434366	0.559132
-45.000000	0.388466	0.386271	0.013736	0.253891	0.347329	-0.109412	-0.034912	0.020849	-0.048855	0.063990	0.194433	-0.369377	0.028923	-0.128165	-0.058580	-0.034464	-0.798543	0.390931	-0.065746	-0.273834	-0.102601	-0.179308	1.019368	-0.390930	-0.077274	-0.265390	-0.044091	-0.176907	-0.254104	0.037594	-0.150755	-0.469366	0.516925	0.558053
-44.000000	0.209115	0.248064	-0.127239	0.117925	0.211827	-0.295336	-0.233321	-0.112572	-0.042281	0.031477	0.224438	-0.534469	-0.099460	0.082518	0.015767	0.397002	-0.572558	0.343630	-0.153998	-0.073416	-0.003962	0.135596	0.089744	-0.343630	-0.139532	-0.118340	0.067667	-0.014691	-0.375221	0.149926	-0.013005	-0.256689	0.401584	0.649372
-43.000000	0.000364	0.160257	-0.240085	-0.016811	0.061797	-0.338805	-0.246064	-0.216265	-0.051685	-0.016658	0.104032	-0.464939	-0.192796	0.218264	0.039512	0.489632	-0.063720	0.270531	-0.208315	0.085673	0.042254	0.293768	-0.696143	-0.270531	-0.183819	0.000801	0.137919	0.051970	-0.469593	0.221706	0.100916	-0.040012	0.108741	0.752946
-42.000000	-0.233842	0.044105	-0.309751	-0.178899	-0.104575	-0.318542	-0.185013	-0.286375	-0.159657	-0.112641	-0.045617	-0.308385	-0.252050	0.076132	-0.043223	0.323205	0.516579	0.126035	-0.245561	0.041279	-0.013611	0.252215	-1.349247	-0.126035	-0.223871	-0.002999	0.065860	-0.016422	-0.599319	0.165418	0.066176	-0.007970	-0.170816	0.755078
-41.000000	-0.418772	-0.139927	-0.311901	-0.306902	-0.241222	-0.294791	-0.141987	-0.304179	-0.309883	-0.221759	-0.193874	-0.189113	-0.252846	-0.250374	-0.169745	0.011432	0.929012	0.009246	-0.253784	-0.135744	-0.111307	0.075961	-1.843410	-0.009246	-0.218671	-0.066254	-0.094896	-0.185088	-0.803249	0.005120	-0.123667	-0.220662	-0.327614	0.591774
-40.000000	-0.454362	-0.274226	-0.263199	-0.304506	-0.238111	-0.184149	-0.047518	-0.273111	-0.344150	-0.212790	-0.201620	-0.082571	-0.218105	-0.419137	-0.159860	-0.207656	1.285787	-0.057874	-0.212428	-0.181799	-0.089543	-0.040289	-1.907036	0.057874	-0.166097	0.001383	-0.156076	-0.305149	-0.955687	-0.122814	-0.287738	-0.502032	-0.367693	0.277796
-39.000000	-0.306287	-0.201978	-0.184931	-0.152627	-0.035786	0.080473	0.141807	-0.195431	-0.184032	-0.015941	0.060704	0.055930	-0.169086	-0.227746	0.078629	-0.033417	1.597062	-0.080157	-0.097664	0.063697	0.128225	0.116325	-1.299103	0.080157	-0.068604	0.283280	-0.005083	-0.201211	-0.890855	-0.123471	-0.285434	-0.680213	-0.331709	-0.050987
-38.000000	-0.043428	0.050489	-0.067222	0.081401	0.280869	0.436659	0.391505	-0.074547	0.111065	0.278023	0.457135	0.272110	-0.084897	0.226528	0.422396	0.416319	1.665880	0.000417	0.054540	0.511741	0.447174	0.523613	-0.204701	-0.000417	0.068555	0.683195	0.295099	0.140186	-0.598281	-0.000416	-0.128309	-0.678675	-0.286375	-0.263924
-37.000000	0.156590	0.229380	0.075482	0.274523	0.540464	0.713656	0.558241	0.065978	0.392231	0.506411	0.772674	0.467236	0.043824	0.627093	0.679078	0.829358	1.398013	0.143219	0.169497	0.887589	0.705164	0.938481	0.725180	-0.143219	0.185538	1.009349	0.584923	0.518129	-0.290356	0.161458	0.093460	-0.490233	-0.257720	-0.368946
-36.000000	0.192798	0.125317	0.179976	0.345188	0.648543	0.775955	0.436308	0.169186	0.517831	0.583874	0.952346	0.338325	0.161412	0.707673	0.772552	1.241542	0.762369	0.224897	0.210181	0.971402	0.815572	1.225061	0.890560	-0.224897	0.233369	1.109995	0.758440	0.740015	-0.186590	0.310377	0.315565	-0.175371	-0.210406	-0.422558
-35.000000	0.149632	-0.198687	0.188456	0.317880	0.637798	0.644404	0.077282	0.171720	0.481472	0.548462	1.014425	-0.150684	0.181904	0.529663	0.733466	1.701457	-0.107394	0.203849	0.162881	0.815609	0.807252	1.399195	0.266636	-0.203849	0.190517	1.004900	0.803828	0.810208	-0.243294	0.468030	0.512946	0.195017	-0.148800	-0.427885
-34.000000	0.103086	-0.539671	0.107941	0.245742	0.550926	0.450469	-0.237310	0.082487	0.369761	0.440741	0.865616	-0.592540	0.104081	0.303826	0.577784	1.756769	-0.807445	0.172721	0.038960	0.594915	0.694226	1.342028	-0.693730	-0.172721	0.065235	0.790725	0.704330	0.749386	-0.334814	0.562559	0.585118	0.438830	-0.124353	-0.395942
-33.000000	0.024430	-0.773760	-0.051213	0.138273	0.408590	0.319366	-0.331707	-0.073287	0.227174	0.265941	0.505345	-0.638348	-0.053775	0.108219	0.316300	1.121891	-0.933681	0.201672	-0.153392	0.372389	0.462863	0.950827	-1.455198	-0.201672	-0.133845	0.511747	0.463082	0.532178	-0.433245	0.505990	0.476808	0.394415	-0.146554	-0.346622
-32.000000	-0.095597	-0.869342	-0.279791	-0.000565	0.261007	0.258083	-0.249834	-0.291000	0.075563	0.084041	0.167330	-0.396894	-0.284264	-0.058432	0.026107	0.279653	-0.570384	0.228204	-0.399280	0.151167	0.189579	0.454719	-1.694342	-0.228204	-0.392590	0.206609	0.184199	0.261800	-0.489592	0.366876	0.281451	0.156712	-0.131511	-0.236329
-31.000000	-0.238582	-0.819194	-0.548592	-0.167249	0.127989	0.149154	-0.156650	-0.552494	-0.090356	-0.063599	-0.028825	-0.213530	-0.549087	-0.209737	-0.215417	-0.282043	-0.206474	0.184096	-0.656802	-0.054652	-0.039224	0.107549	-1.529629	-0.184096	-0.662128	-0.086811	-0.054233	0.067100	-0.487686	0.228012	0.081977	-0.102691	-0.012322	-0.029489
-30.000000	-0.387787	-0.657374	-0.782815	-0.337226	0.015095	-0.022304	-0.083794	-0.789165	-0.261367	-0.173217	-0.160131	-0.168581	-0.779910	-0.358824	-0.381779	-0.563958	-0.118830	0.074662	-0.861810	-0.233953	-0.199649	-0.127347	-1.305744	-0.074662	-0.865837	-0.328092	-0.237062	-0.067801	-0.467758	0.104639	-0.098920	-0.301974	0.103645	0.225248
-29.000000	-0.477139	-0.449516	-0.887036	-0.440863	-0.037255	-0.103556	0.056788	-0.901737	-0.357934	-0.197139	-0.213610	-0.117838	-0.889209	-0.468791	-0.452587	-0.636612	-0.164209	-0.024988	-0.944652	-0.360713	-0.267651	-0.301401	-1.093063	0.024988	-0.927149	-0.459053	-0.334837	-0.160234	-0.383615	0.014325	-0.238523	-0.415833	0.133169	0.436803
-28.000000	-0.442567	-0.204272	-0.837854	-0.429988	0.011411	0.011052	0.275488	-0.850234	-0.333170	-0.080009	-0.068869	0.032926	-0.836865	-0.469747	-0.374459	-0.379711	-0.013961	-0.051183	-0.877694	-0.377763	-0.205562	-0.291804	-0.704749	0.051183	-0.833964	-0.440989	-0.308514	-0.138621	-0.176485	-0.023435	-0.298785	-0.430384	0.140412	0.554159
-27.000000	-0.284728	0.070949	-0.655906	-0.287440	0.189446	0.283412	0.513417	-0.662327	-0.164804	0.199532	0.310874	0.253850	-0.650800	-0.272546	-0.104470	0.273377	0.437085	-0.012169	-0.669384	-0.197005	0.023694	0.014079	-0.033714	0.012169	-0.616542	-0.242167	-0.120482	0.063135	0.136720	0.047732	-0.219708	-0.300627	0.178326	0.586698
-26.000000	-0.090707	0.292887	-0.424333	-0.065585	0.446397	0.568075	0.664253	-0.447301	0.142930	0.566731	0.808666	0.379709	-0.429686	0.157151	0.282961	1.148179	0.916512	0.055951	-0.414027	0.164106	0.367919	0.513975	0.743982	-0.055951	-0.373304	0.078076	0.168495	0.388513	0.474906	0.236171	0.005646	-0.011976	0.205823	0.509602
-25.000000	0.022313	0.419688	-0.249360	0.122289	0.656430	0.758167	0.737715	-0.298234	0.469185	0.849928	1.169082	0.432162	-0.265127	0.638241	0.612078	1.798184	1.179902	0.097557	-0.231673	0.499651	0.650792	0.905545	1.261621	-0.097557	-0.222760	0.348970	0.397055	0.630526	0.689448	0.405353	0.258887	0.320246	0.092050	0.296587
-24.000000	0.087182	0.486662	-0.114733	0.259173	0.783207	0.889042	0.861239	-0.160907	0.662283	0.973601	1.253607	0.588609	-0.133600	0.859604	0.781499	1.850846	1.298937	0.103885	-0.098650	0.637506	0.772718	1.057082	1.416246	-0.103885	-0.125024	0.491230	0.504649	0.720249	0.706383	0.468265	0.438082	0.577064	-0.128088	0.091837
-23.000000	0.203610	0.507820	0.025107	0.410953	0.887636	0.974850	0.993872	-0.002972	0.708411	1.028298	1.222971	0.764337	-0.001024	0.757216	0.855417	1.555026	1.301284	0.119783	0.034838	0.616258	0.807761	1.160011	1.382456	-0.119783	-0.008531	0.546687	0.569026	0.801936	0.592763	0.484535	0.562833	0.785513	-0.196670	0.075453
-22.000000	0.327034	0.496813	0.096704	0.571885	0.989419	0.983541	1.045671	0.079763	0.688609	1.077361	1.211656	0.846372	0.064363	0.547725	0.916140	1.291861	1.083693	0.116491	0.090391	0.547197	0.835610	1.307816	1.242619	-0.116491	0.043349	0.545104	0.640087	0.912491	0.438946	0.486741	0.670172	1.002107	-0.038993	0.194806
-21.000000	0.328599	0.467674	0.004236	0.631080	1.037193	0.923487	1.008170	0.001594	0.612007	1.071484	1.173690	0.854204	-0.024640	0.362948	0.921465	1.037936	0.764061	0.014086	-0.018745	0.440144	0.807802	1.302805	0.931431	-0.014086	-0.062163	0.455801	0.643329	0.909007	0.269443	0.400396	0.668148	1.107537	0.124111	0.260479
-20.000000	0.216962	0.448357	-0.157315	0.583824	1.045561	0.872608	0.899090	-0.147622	0.519727	1.012511	1.120395	0.774928	-0.180484	0.239224	0.867749	0.845332	0.579745	-0.113643	-0.191596	0.324370	0.708643	1.125231	0.363250	0.113643	-0.222996	0.289821	0.545166	0.768273	0.078188	0.204815	0.465499	0.923100	0.128311	0.216007
-19.000000	0.222813	0.544099	-0.154957	0.639398	1.161612	1.005472	0.869243	-0.140866	0.580096	1.035906	1.166466	0.757466	-0.175366	0.295376	0.890498	0.878759	0.732938	-0.141536	-0.216832	0.331928	0.671852	1.016975	-0.254474	0.141536	-0.229187	0.177145	0.482527	0.692643	-0.019567	0.023765	0.188882	0.547794	0.061595	0.157662
-18.000000	0.471388	0.829117	0.040673	0.867715	1.405409	1.317716	1.024126	0.059343	0.800105	1.190908	1.335948	1.003004	0.025301	0.535768	1.034098	1.051038	1.250573	-0.109898	-0.063954	0.474907	0.767975	1.044684	-0.525863	0.109898	-0.057469	0.193455	0.549613	0.794843	0.130871	-0.048200	0.018206	0.243378	0.067897	0.196871
-17.000000	0.806831	1.249576	0.276424	1.091120	1.620810	1.605299	1.291099	0.292841	0.996436	1.363027	1.512711	1.408104	0.262766	0.770625	1.201054	1.186941	1.818903	-0.094279	0.148503	0.621353	0.929817	1.140654	-0.383858	0.094279	0.158349	0.286114	0.696783	0.994606	0.480476	0.019776	0.033932	0.184751	0.074543	0.304609
-16.000000	1.030709	1.585527	0.423223	1.165779	1.706518	1.751825	1.542329	0.437746	1.036219	1.442552	1.563094	1.712990	0.403769	0.822769	1.282954	1.173204	2.004711	-0.169243	0.305808	0.646407	1.043239	1.242392	-0.058053	0.169243	0.299111	0.350418	0.816844	1.144471	0.764136	0.194734	0.188743	0.348050	-0.102520	0.324266
-15.000000	1.097789	1.668629	0.442233	1.112429	1.687461	1.794496	1.696709	0.465338	0.937025	1.433446	1.507836	1.864043	0.421757	0.684811	1.276332	1.072394	1.784868	-0.348909	0.367284	0.545101	1.079437	1.347177	0.287366	0.348909	0.329056	0.338584	0.866224	1.194810	0.829772	0.373255	0.363286	0.540934	-0.394761	0.213558
-14.000000	1.103155	1.627099	0.441305	1.074095	1.680580	1.845153	1.813538	0.460668	0.859303	1.450442	1.528410	1.979236	0.422601	0.527928	1.307697	1.102626	1.587275	-0.479585	0.405732	0.457649	1.159112	1.549338	0.670496	0.479585	0.341122	0.336205	0.938656	1.303922	0.872363	0.533748	0.549228	0.734884	-0.525908	0.048206
-13.000000	1.065555	1.551645	0.433083	1.067470	1.683211	1.870986	1.866321	0.437868	0.848141	1.490341	1.637541	1.979379	0.417676	0.417893	1.360325	1.295852	1.510384	-0.464665	0.400483	0.396659	1.267375	1.746402	1.009897	0.464665	0.334153	0.323361	1.019373	1.481485	1.009446	0.606339	0.695716	0.940229	-0.418545	-0.126908
-12.000000	0.891014	1.340825	0.284236	0.967297	1.584762	1.782335	1.709954	0.279972	0.780533	1.440639	1.722461	1.683945	0.272117	0.260703	1.293345	1.626302	1.349578	-0.434925	0.231371	0.238678	1.236403	1.736486	1.032299	0.434925	0.185855	0.155224	0.969348	1.515091	1.089932	0.435334	0.638705	1.013209	-0.240943	-0.249366
-11.000000	0.631873	1.040424	0.048858	0.793373	1.432757	1.637341	1.411249	0.033856	0.650414	1.355666	1.818478	1.205097	0.027178	0.093872	1.171531	2.169126	1.133882	-0.495301	-0.033602	0.028857	1.107633	1.642543	0.684757	0.495300	-0.045812	-0.104383	0.844885	1.422870	1.096167	0.088817	0.424087	0.963668	-0.110686	-0.255900
-10.000000	0.506760	0.870748	-0.036082	0.701947	1.360384	1.552163	1.242213	-0.070233	0.591959	1.346974	1.916595	0.945470	-0.078459	0.069550	1.143333	2.631960	1.075301	-0.528403	-0.151452	-0.062557	1.049959	1.670953	0.262938	0.528403	-0.138279	-0.232804	0.800891	1.390354	1.151874	-0.172020	0.280859	0.952613	-0.100276	-0.124631
-9.000000	0.546293	0.853743	0.078665	0.725454	1.371263	1.541894	1.282760	0.021968	0.623130	1.367648	1.897591	1.057424	0.018701	0.210371	1.167297	2.584455	1.230982	-0.414413	-0.070482	0.000422	1.054934	1.762090	0.062803	0.414413	-0.054488	-0.195598	0.808925	1.420142	1.228228	-0.285252	0.237336	0.969229	-0.248826	0.164986
-8.000000	0.597319	0.830220	0.204299	0.746006	1.386689	1.509439	1.317376	0.132718	0.669951	1.355033	1.770225	1.196108	0.144962	0.445217	1.167448	2.180413	1.351104	-0.193997	0.024368	0.134200	1.057290	1.853594	0.242610	0.193997	0.025980	-0.120105	0.797662	1.459623	1.254794	-0.365317	0.174052	0.924814	-0.473189	0.546950
-7.000000	0.616508	0.800839	0.238040	0.701103	1.362936	1.420003	1.257362	0.167223	0.700734	1.305413	1.605022	1.152905	0.201315	0.669490	1.135724	1.720698	1.234473	-0.009988	0.043836	0.250910	1.038637	1.875395	0.829966	0.009988	0.025436	-0.081443	0.765434	1.472746	1.285004	-0.441797	0.084724	0.828276	-0.687433	0.874368
-6.000000	0.594710	0.765776	0.203424	0.602529	1.260307	1.288925	1.179549	0.147341	0.637006	1.140576	1.372396	1.064229	0.196056	0.634838	0.991008	1.200579	0.970814	-0.024599	0.015266	0.191000	0.903808	1.599950	1.625813	0.024599	-0.031595	-0.144944	0.631214	1.311718	1.299380	-0.567741	-0.060543	0.615667	-0.862580	1.063766
-5.000000	0.528787	0.662293	0.134407	0.482305	1.096757	1.137966	1.091126	0.095485	0.478321	0.863412	1.107827	1.021848	0.138258	0.287486	0.721901	0.715868	0.914612	-0.275569	-0.047085	-0.088105	0.640435	1.055289	2.359600	0.275569	-0.130379	-0.327738	0.369193	0.953288	1.204456	-0.807511	-0.329199	0.237686	-1.019450	1.080111
-4.000000	0.542936	0.627877	0.108019	0.430471	1.005362	1.068237	1.018897	0.087500	0.389984	0.680844	0.977894	1.013327	0.102307	-0.021291	0.511675	0.507617	1.291268	-0.592999	-0.077153	-0.341109	0.429915	0.594408	2.750872	0.592999	-0.177540	-0.501819	0.142172	0.600739	0.982268	-1.062063	-0.623363	-0.151214	-1.141219	0.899057
-3.000000	0.736805	0.768946	0.202253	0.509583	1.062757	1.104276	0.984741	0.183988	0.444846	0.706718	1.001019	1.002559	0.176451	-0.036098	0.503631	0.557396	1.821695	-0.757698	0.010294	-0.366444	0.389787	0.439641	2.539505	0.757698	-0.092925	-0.531912	0.078796	0.426217	0.708094	-1.166551	-0.764799	-0.361892	-1.103237	0.589430
-2.000000	1.068502	1.010141	0.403339	0.686133	1.230842	1.174867	1.029291	0.359214	0.605587	0.870411	1.034799	1.070143	0.359124	0.225775	0.672361	0.616132	2.232837	-0.739219	0.214647	-0.161726	0.508378	0.559665	1.905845	0.739219	0.108763	-0.374912	0.200255	0.501070	0.589747	-1.040775	-0.670282	-0.312765	-0.891555	0.266246
-1.000000	1.439971	1.278046	0.655450	0.914205	1.472402	1.295579	1.241417	0.596896	0.878731	1.124409	1.101329	1.339579	0.615854	0.691721	0.955213	0.680849	2.516212	-0.708091	0.490879	0.209434	0.761236	0.826113	1.321056	0.708091	0.400954	-0.060945	0.485202	0.776727	0.733486	-0.734802	-0.390369	-0.048698	-0.666117	0.017669
0.000000	1.696238	1.487758	0.870847	1.102354	1.699229	1.427039	1.495227	0.813919	1.153643	1.373306	1.249347	1.602849	0.844350	1.136975	1.228397	0.908626	2.440357	-0.763951	0.734385	0.556654	1.024336	1.051795	0.910638	0.763951	0.672608	0.247301	0.756365	1.024819	0.927913	-0.451770	-0.143154	0.178981	-0.553820	-0.100402
1.000000	1.703360	1.580975	0.935503	1.126929	1.771043	1.459060	1.577254	0.882115	1.210362	1.442139	1.326440	1.565562	0.917603	1.190284	1.306853	1.144257	1.789498	-0.813189	0.821111	0.625507	1.100125	1.060598	0.534813	0.813189	0.789186	0.323681	0.788657	1.028147	0.941300	-0.392980	-0.155839	0.086908	-0.558920	-0.099009
2.000000	1.484045	1.572789	0.837632	0.990282	1.644325	1.385401	1.480544	0.804615	1.003770	1.290105	1.226568	1.293254	0.836034	0.776530	1.150288	1.113039	0.924143	-0.732217	0.745000	0.361066	0.942166	0.819815	0.266537	0.732217	0.740825	0.134325	0.573406	0.800721	0.816270	-0.514755	-0.379167	-0.250974	-0.542556	0.014967
3.000000	1.175950	1.478970	0.673007	0.777201	1.401003	1.252245	1.314296	0.662623	0.699945	1.024098	0.964707	1.002495	0.689952	0.220494	0.871963	0.712965	0.335021	-0.517147	0.601724	-0.029591	0.684185	0.422581	0.336916	0.517147	0.611491	-0.136391	0.272831	0.509027	0.728214	-0.619692	-0.557226	-0.486032	-0.420058	0.228128
4.000000	0.909045	1.313242	0.545891	0.568231	1.164723	1.134314	1.184664	0.545227	0.477014	0.775142	0.614945	0.797837	0.574435	-0.174146	0.604310	0.106718	0.069897	-0.295722	0.496411	-0.305453	0.467760	0.026467	0.683626	0.295722	0.508261	-0.320729	0.029952	0.253886	0.689543	-0.634718	-0.562331	-0.483480	-0.258603	0.411091
5.000000	0.692238	1.097010	0.459056	0.401020	0.971628	1.046862	1.086835	0.464952	0.344804	0.576544	0.308251	0.668826	0.485897	-0.376782	0.399555	-0.288066	-0.070387	-0.219488	0.422386	-0.452508	0.304397	-0.225640	1.000387	0.219488	0.425898	-0.419439	-0.145863	0.040606	0.592717	-0.646141	-0.505957	-0.403951	-0.045244	0.474544
6.000000	0.480135	0.833538	0.344859	0.268401	0.784099	0.924535	0.918923	0.350326	0.225919	0.392438	0.164209	0.513800	0.365783	-0.473191	0.256092	-0.167895	-0.208885	-0.322837	0.292861	-0.567727	0.136909	-0.277981	1.135550	0.322837	0.282959	-0.518300	-0.316489	-0.116964	0.401951	-0.745490	-0.527509	-0.388322	0.258481	0.470748
7.000000	0.328675	0.562202	0.227403	0.199551	0.638040	0.818877	0.729445	0.222254	0.144052	0.279646	0.250144	0.297511	0.241620	-0.425452	0.207512	0.430340	-0.228461	-0.489881	0.132673	-0.591116	-0.001621	-0.124074	1.136222	0.489881	0.116720	-0.588513	-0.465629	-0.191700	0.144206	-0.914165	-0.622035	-0.447704	0.526063	0.442797
8.000000	0.293799	0.367117	0.191687	0.192644	0.562219	0.771998	0.653506	0.177360	0.148991	0.251945	0.390713	0.193161	0.182255	-0.203860	0.207793	1.015587	0.031230	-0.579755	0.059421	-0.450667	-0.083957	0.079601	1.044373	0.579755	0.045923	-0.556022	-0.583594	-0.239795	-0.123097	-1.096479	-0.758411	-0.596988	0.603048	0.430868
9.000000	0.337103	0.276501	0.275186	0.227255	0.521271	0.731551	0.690381	0.260679	0.213215	0.213632	0.367379	0.321798	0.240197	0.030408	0.159829	1.071787	0.418084	-0.544289	0.144307	-0.272670	-0.176695	0.110990	0.737904	0.544289	0.124950	-0.480580	-0.730206	-0.359790	-0.381169	-1.291830	-0.985863	-0.901018	0.531490	0.460304
10.000000	0.427211	0.191742	0.419574	0.303785	0.514234	0.722606	0.767423	0.413280	0.279730	0.153108	0.282273	0.544067	0.377169	0.078754	0.078046	0.746016	0.589071	-0.422802	0.307418	-0.252378	-0.299333	0.015372	0.071419	0.422802	0.269089	-0.476054	-0.906868	-0.535672	-0.658680	-1.490553	-1.286120	-1.326532	0.498489	0.453885
11.000000	0.525965	-0.025964	0.469713	0.338728	0.509246	0.722897	0.781122	0.481769	0.287840	0.085066	0.240106	0.632385	0.441171	-0.086773	-0.019779	0.442606	0.371379	-0.255404	0.363830	-0.440717	-0.442944	-0.051977	-0.802088	0.255404	0.310152	-0.599998	-1.085516	-0.674437	-0.935585	-1.655021	-1.543569	-1.707724	0.584462	0.374774
12.000000	0.564906	-0.349442	0.327466	0.251707	0.445205	0.630506	0.672465	0.359811	0.196219	-0.027302	0.166245	0.520514	0.329895	-0.350689	-0.174753	0.236730	0.019061	-0.106012	0.229559	-0.724381	-0.635326	-0.167585	-1.458536	0.106011	0.166935	-0.831329	-1.283595	-0.804100	-1.165167	-1.780600	-1.721886	-1.945546	0.679426	0.300349
13.000000	0.551364	-0.630026	0.085345	0.112185	0.368855	0.465274	0.517292	0.124916	0.057491	-0.148085	0.085922	0.341803	0.115422	-0.562668	-0.340129	0.137770	-0.023760	-0.069382	-0.011090	-0.949538	-0.837464	-0.467523	-1.495349	0.069382	-0.076902	-1.051936	-1.475858	-0.978411	-1.253028	-1.849524	-1.835584	-2.030073	0.677669	0.305693
14.000000	0.586436	-0.711765	-0.071739	0.086986	0.393943	0.352853	0.437276	-0.037751	0.042347	-0.160054	0.121480	0.239136	-0.031510	-0.556486	-0.371324	0.278494	0.318284	-0.116175	-0.185720	-0.977979	-0.912343	-0.783177	-0.857303	0.116174	-0.254654	-1.120376	-1.543711	-1.078496	-1.109782	-1.805292	-1.808677	-1.918556	0.596132	0.388775
15.000000	0.676419	-0.529185	-0.079928	0.212326	0.514358	0.342079	0.489598	-0.062580	0.200936	-0.063281	0.231639	0.258540	-0.059367	-0.341588	-0.268645	0.514972	0.662861	-0.131773	-0.226847	-0.825154	-0.842318	-0.922584	-0.027033	0.131773	-0.317671	-1.061818	-1.474183	-1.057398	-0.864636	-1.700959	-1.667650	-1.700972	0.447702	0.480894
16.000000	0.750223	-0.201775	0.009499	0.376430	0.629424	0.390455	0.609918	0.006068	0.389565	0.024544	0.261891	0.322596	-0.013302	-0.115021	-0.191194	0.513889	0.626484	-0.122885	-0.185957	-0.641640	-0.773690	-0.975016	0.317581	0.122885	-0.307769	-1.002441	-1.397343	-1.056900	-0.748252	-1.658821	-1.600755	-1.609989	0.245135	0.523698
17.000000	0.817504	0.180334	0.161451	0.515033	0.682708	0.432781	0.767899	0.137110	0.515476	0.058023	0.148935	0.415146	0.099915	0.019381	-0.204834	0.205307	0.322431	-0.154764	-0.075442	-0.493498	-0.766194	-1.010155	-0.032002	0.154764	-0.205753	-0.942940	-1.366942	-1.118427	-0.775231	-1.658161	-1.646245	-1.689234	0.079004	0.526679
18.000000	0.846098	0.555574	0.278839	0.565649	0.616142	0.360551	0.959336	0.243843	0.535473	0.002133	-0.124440	0.561004	0.207004	0.048006	-0.308999	-0.381308	0.100870	-0.191693	0.044591	-0.402775	-0.809303	-1.024368	-0.770539	0.191693	-0.076990	-0.861148	-1.383063	-1.162717	-0.807610	-1.636347	-1.712298	-1.793751	-0.022312	0.554837
19.000000	0.729631	0.725034	0.235001	0.436830	0.394795	0.141787	1.052012	0.211296	0.384028	-0.186129	-0.514779	0.614154	0.179990	-0.055680	-0.532478	-1.130373	0.030052	-0.210530	0.038004	-0.419920	-0.929685	-1.103512	-1.508802	0.210530	-0.085553	-0.837019	-1.463538	-1.205319	-0.788363	-1.631275	-1.748308	-1.776403	-0.149284	0.651701
20.000000	0.447206	0.578596	0.052752	0.141990	0.078742	-0.125792	0.963203	0.041532	0.084190	-0.463391	-0.886402	0.514590	0.020030	-0.264729	-0.837878	-1.760281	0.013449	-0.273313	-0.109204	-0.536749	-1.114793	-1.325288	-1.856883	0.273313	-0.243383	-0.901546	-1.591458	-1.318856	-0.726097	-1.635748	-1.699345	-1.542920	-0.352316	0.799996
21.000000	0.113517	0.258991	-0.127090	-0.183952	-0.241229	-0.356529	0.779874	-0.127394	-0.219027	-0.736200	-1.136191	0.377568	-0.132198	-0.477937	-1.099146	-2.120189	-0.070435	-0.398191	-0.261198	-0.661091	-1.276556	-1.625459	-1.607054	0.398191	-0.385655	-0.960748	-1.694284	-1.455208	-0.632648	-1.578586	-1.545558	-1.154312	-0.574927	0.957596
22.000000	-0.174674	-0.051687	-0.212143	-0.424834	-0.496567	-0.496997	0.635741	-0.191020	-0.432420	-0.925851	-1.234014	0.281462	-0.179007	-0.638705	-1.227152	-2.194603	-0.258554	-0.539823	-0.313992	-0.724214	-1.335833	-1.810403	-0.960855	0.539823	-0.408248	-0.945981	-1.702215	-1.513468	-0.556822	-1.480648	-1.376747	-0.836016	-0.766243	1.045341
23.000000	-0.466646	-0.378890	-0.259651	-0.626123	-0.729325	-0.600843	0.466429	-0.221307	-0.623145	-1.075053	-1.277017	0.106089	-0.205129	-0.801399	-1.281607	-2.073106	-0.606660	-0.668681	-0.324297	-0.783302	-1.357270	-1.805811	-0.348447	0.668681	-0.403089	-0.945826	-1.680422	-1.514621	-0.557842	-1.469683	-1.312679	-0.775367	-0.875529	1.031607
24.000000	-0.787904	-0.789313	-0.336858	-0.854680	-1.013452	-0.787015	0.147986	-0.288868	-0.850014	-1.254063	-1.348631	-0.266216	-0.304027	-1.005310	-1.356719	-1.867488	-1.106675	-0.717843	-0.380938	-0.898780	-1.423175	-1.748320	-0.076532	0.717843	-0.456335	-1.033007	-1.712352	-1.541345	-0.625185	-1.584420	-1.370993	-0.941321	-0.825569	1.060524
25.000000	-1.006107	-1.137913	-0.381558	-1.005348	-1.232519	-0.968442	-0.132385	-0.322110	-1.023356	-1.387503	-1.328607	-0.584326	-0.381186	-1.148514	-1.402513	-1.533656	-1.215287	-0.619609	-0.419110	-0.971407	-1.449823	-1.704566	-0.020310	0.619609	-0.478815	-1.082107	-1.694408	-1.551498	-0.660817	-1.653153	-1.410316	-1.101437	-0.663156	1.213366
26.000000	-1.055909	-1.301988	-0.379394	-1.026315	-1.288751	-1.030194	-0.197235	-0.317425	-1.050438	-1.426791	-1.203619	-0.616716	-0.383099	-1.151531	-1.355596	-1.172879	-0.635601	-0.454808	-0.398674	-0.925002	-1.372671	-1.617190	0.123857	0.454808	-0.427907	-0.994323	-1.545753	-1.449264	-0.619810	-1.525663	-1.283607	-1.046299	-0.554825	1.371071
27.000000	-0.954901	-1.279605	-0.352669	-0.960046	-1.230429	-0.991078	-0.115118	-0.306848	-0.925945	-1.388136	-1.122908	-0.446357	-0.348810	-1.030116	-1.228937	-1.026965	0.152897	-0.276226	-0.346563	-0.784428	-1.208016	-1.439729	0.465412	0.276226	-0.336645	-0.794678	-1.313958	-1.211412	-0.527978	-1.191902	-0.971805	-0.745710	-0.532761	1.456462
28.000000	-0.632702	-1.027154	-0.209912	-0.748394	-1.017663	-0.807514	0.085879	-0.191007	-0.642656	-1.191510	-1.010135	-0.127712	-0.211216	-0.760130	-0.985018	-0.962799	0.812461	-0.036541	-0.201536	-0.522671	-0.914025	-1.116579	0.963721	0.036541	-0.162551	-0.486790	-0.984376	-0.814334	-0.326471	-0.689667	-0.547149	-0.316519	-0.463399	1.443002
29.000000	-0.154508	-0.649816	0.014310	-0.427996	-0.664078	-0.487406	0.355507	0.007839	-0.289120	-0.847868	-0.730509	0.235303	-0.008458	-0.432973	-0.651926	-0.677010	1.263454	0.179352	-0.018593	-0.207386	-0.536380	-0.690999	1.407787	-0.179352	0.033952	-0.156508	-0.585493	-0.344728	-0.011073	-0.163355	-0.152433	0.066933	-0.312665	1.303916
30.000000	0.221909	-0.417544	0.139836	-0.197159	-0.376709	-0.225888	0.478866	0.118408	-0.070833	-0.561553	-0.426810	0.338743	0.087745	-0.244089	-0.399243	-0.235310	1.078570	0.235669	0.052358	-0.022775	-0.266055	-0.353182	1.530104	-0.235669	0.113488	0.029408	-0.282141	-0.006893	0.273872	0.201296	0.094420	0.306638	-0.151443	1.087208
31.000000	0.390499	-0.393492	0.157997	-0.128647	-0.257657	-0.151358	0.385013	0.126081	-0.028907	-0.446137	-0.287870	0.104012	0.083217	-0.186072	-0.301526	0.067159	0.011124	0.161834	0.039308	0.022162	-0.174363	-0.239078	1.223503	-0.161834	0.100089	0.059980	-0.159979	0.082922	0.375337	0.366229	0.176481	0.351128	0.017873	0.867382
32.000000	0.453958	-0.446105	0.180481	-0.107003	-0.198317	-0.171419	0.257244	0.133096	-0.030651	-0.434976	-0.301182	-0.189501	0.090745	-0.100464	-0.272172	0.057773	-1.284081	0.074995	0.048638	0.063561	-0.160673	-0.318477	0.649752	-0.074995	0.099205	0.067477	-0.147510	-0.055999	0.232807	0.421590	0.151756	0.218959	0.233271	0.748465
33.000000	0.510525	-0.487928	0.206339	-0.052241	-0.096887	-0.174339	0.194818	0.151602	0.002363	-0.434335	-0.335810	-0.357827	0.118846	0.098769	-0.229771	-0.126895	-2.090546	0.032382	0.088795	0.194737	-0.128422	-0.452496	0.224773	-0.032383	0.122052	0.147419	-0.127701	-0.268785	-0.020598	0.463029	0.130837	0.095424	0.508563	0.824839
34.000000	0.602725	-0.444452	0.225673	0.044917	0.068269	-0.124409	0.183220	0.169292	0.086125	-0.364354	-0.292670	-0.389655	0.163890	0.399651	-0.125716	-0.210232	-2.259145	0.036650	0.155050	0.456006	-0.010525	-0.459903	0.250031	-0.036650	0.155807	0.326737	0.011115	-0.339830	-0.151819	0.569010	0.223305	0.133808	0.847247	1.035743
35.000000	0.699424	-0.293925	0.284506	0.146334	0.241006	-0.022957	0.239467	0.213282	0.159502	-0.227607	-0.186770	-0.303900	0.245212	0.629078	0.027749	-0.120864	-1.899402	0.063643	0.254803	0.725985	0.173199	-0.287480	0.617905	-0.063643	0.222125	0.540156	0.262351	-0.220108	-0.094347	0.749615	0.418296	0.267426	1.227137	1.271141
36.000000	0.705434	-0.161146	0.344356	0.156601	0.306089	0.040816	0.290216	0.263909	0.113068	-0.146210	-0.073798	-0.250173	0.318011	0.555827	0.124066	0.107573	-1.393987	0.057160	0.333664	0.773779	0.295142	-0.095838	1.015558	-0.057160	0.290695	0.641448	0.462691	-0.069886	0.008909	0.904662	0.566569	0.315391	1.555122	1.484736
37.000000	0.585290	-0.140406	0.356207	0.049381	0.231750	-0.020436	0.220251	0.289301	-0.030919	-0.178571	0.052015	-0.355437	0.348177	0.191927	0.111098	0.481518	-1.035918	-0.020077	0.355941	0.553904	0.309392	0.021705	1.266469	0.020077	0.310133	0.582333	0.527471	0.002929	0.016716	0.941499	0.556756	0.182594	1.741500	1.607704
38.000000	0.399056	-0.171207	0.331036	-0.136404	0.073859	-0.172123	0.065090	0.290420	-0.165679	-0.271363	0.173941	-0.545284	0.342211	-0.216929	0.034283	0.915329	-0.725213	-0.125142	0.352838	0.239639	0.259298	0.126080	1.310935	0.125142	0.293448	0.458666	0.518989	0.000873	-0.123609	0.847973	0.406033	-0.134510	1.801080	1.604277
39.000000	0.247503	-0.184522	0.309647	-0.329555	-0.114295	-0.311581	-0.048758	0.294062	-0.248156	-0.389160	0.178022	-0.625406	0.330830	-0.454779	-0.066734	1.071136	-0.354911	-0.148829	0.366022	0.030457	0.172077	0.226083	1.156866	0.148829	0.294768	0.376901	0.498773	-0.053733	-0.374640	0.692358	0.227468	-0.507671	1.735237	1.494116
40.000000	0.178887	-0.182636	0.318823	-0.434908	-0.276504	-0.362063	-0.041310	0.316809	-0.294486	-0.513271	0.001024	-0.497896	0.340930	-0.540252	-0.186723	0.663543	-0.000844	-0.043474	0.372707	-0.044542	0.082147	0.261215	0.909124	0.043474	0.300965	0.360740	0.478636	-0.105006	-0.613517	0.565339	0.138461	-0.697064	1.478985	1.246697
41.000000	0.162289	-0.169338	0.294517	-0.435168	-0.366947	-0.316367	0.077084	0.301506	-0.307263	-0.595288	-0.227066	-0.268384	0.321982	-0.543931	-0.294385	-0.018701	0.201682	0.091644	0.312202	-0.051727	0.025961	0.204630	0.607065	-0.091644	0.247967	0.375549	0.448158	-0.125142	-0.747592	0.491698	0.150660	-0.650867	1.074990	0.885066
42.000000	0.122548	-0.156022	0.203597	-0.405732	-0.388100	-0.218254	0.184067	0.212267	-0.265377	-0.606626	-0.359397	-0.132782	0.246048	-0.417415	-0.343992	-0.480100	0.104999	0.174590	0.212558	0.038206	0.015310	0.113716	0.292564	-0.174590	0.164938	0.423907	0.424121	-0.119089	-0.761002	0.440713	0.195577	-0.502333	0.740662	0.575248
43.000000	-0.046267	-0.218706	0.075070	-0.438479	-0.387778	-0.176955	0.132342	0.081642	-0.192093	-0.593988	-0.434157	-0.219593	0.137494	-0.224501	-0.355718	-0.664632	-0.323218	0.178357	0.115235	0.188278	0.005695	0.009616	0.090239	-0.178357	0.096453	0.491255	0.390343	-0.135012	-0.738549	0.354868	0.175527	-0.405420	0.621649	0.480039
44.000000	-0.319213	-0.390575	-0.086102	-0.540174	-0.394949	-0.230675	-0.058306	-0.054993	-0.144206	-0.598233	-0.496677	-0.416006	0.002389	-0.131638	-0.370377	-0.713978	-0.681863	0.115008	0.001996	0.228117	-0.057326	-0.182980	0.056800	-0.115008	0.011196	0.488390	0.285437	-0.255000	-0.797833	0.204470	0.038179	-0.476424	0.661676	0.622511
45.000000	-0.477034	-0.518400	-0.154614	-0.550789	-0.307535	-0.211193	-0.196077	-0.094655	-0.056225	-0.508974	-0.433455	-0.487317	-0.053038	-0.051060	-0.307063	-0.567969	-0.455675	0.085596	-0.052627	0.204625	-0.079192	-0.356960	0.200973	-0.085596	-0.032544	0.456835	0.206747	-0.370836	-0.874068	0.096634	-0.102029	-0.625289	0.722373	0.818725
46.000000	-0.397238	-0.483417	-0.038137	-0.387685	-0.051809	-0.013882	-0.163351	0.013815	0.159815	-0.240276	-0.226773	-0.366579	0.047391	0.239822	-0.105076	-0.288774	0.313514	0.121898	0.042192	0.352119	0.045261	-0.354692	0.255499	-0.121898	0.059682	0.529027	0.264666	-0.348624	-0.888736	0.142272	-0.113009	-0.697087	0.675491	0.880452
47.000000	-0.207173	-0.370753	0.077863	-0.232169	0.223401	0.224090	-0.041420	0.111436	0.390851	0.048293	-0.049142	-0.158175	0.145718	0.652297	0.094352	-0.122085	1.127990	0.179312	0.172240	0.610513	0.213888	-0.279737	-0.321581	-0.179312	0.185527	0.637633	0.337724	-0.323475	-0.977746	0.261340	-0.069684	-0.759720	0.569992	0.843026
48.000000	-0.013255	-0.212695	0.104532	-0.177878	0.401098	0.349271	0.069567	0.133310	0.475858	0.194621	0.049143	-0.014165	0.158537	0.812065	0.180966	0.007453	1.523780	0.260614	0.227334	0.688241	0.302290	-0.173833	-1.480547	-0.260614	0.232614	0.624354	0.325479	-0.358830	-1.173497	0.314261	-0.097371	-0.911756	0.554064	0.753646
49.000000	0.201658	0.023240	0.179406	-0.136568	0.509560	0.330458	0.116357	0.209558	0.380093	0.214482	0.134848	-0.083928	0.205750	0.493216	0.171959	0.312456	1.279682	0.357877	0.276753	0.462945	0.291229	0.020420	-2.566838	-0.357877	0.273739	0.449668	0.253805	-0.361205	-1.332919	0.262099	-0.196695	-1.073863	0.627116	0.583894
50.000000	0.365358	0.210618	0.287008	-0.129029	0.525880	0.204552	0.063358	0.319076	0.151544	0.160349	0.208432	-0.367058	0.286079	-0.095843	0.077882	0.729565	0.606202	0.400166	0.332840	0.050643	0.185960	0.155408	-3.178084	-0.400166	0.340252	0.168906	0.125092	-0.394358	-1.389766	0.135784	-0.321186	-1.133971	0.699816	0.380641
51.000000	0.414354	0.245314	0.336675	-0.167397	0.456798	0.085671	-0.006936	0.364296	-0.105730	0.095931	0.278042	-0.644172	0.317925	-0.586435	-0.037174	1.096175	-0.037350	0.392886	0.360193	-0.315707	0.058815	0.141688	-3.363934	-0.392886	0.378804	-0.085880	-0.011461	-0.495782	-1.337212	-0.007018	-0.410008	-1.055618	0.742339	0.219548
52.000000	0.397851	0.138855	0.344846	-0.192083	0.376776	0.036370	-0.043768	0.363937	-0.291088	0.059918	0.306718	-0.790437	0.315931	-0.842124	-0.104477	1.271545	-0.545160	0.355955	0.378531	-0.518329	-0.019540	0.100852	-3.429768	-0.355955	0.385006	-0.246453	-0.104624	-0.578038	-1.240105	-0.151088	-0.455183	-0.936848	0.736243	0.102693
53.000000	0.383734	-0.069549	0.375022	-0.190311	0.306988	0.007565	-0.092933	0.384894	-0.368262	0.031004	0.253156	-0.869327	0.341106	-0.891262	-0.123823	1.226869	-0.988912	0.280502	0.409185	-0.593998	-0.057974	0.141553	-3.522761	-0.280502	0.397076	-0.352863	-0.175982	-0.598422	-1.224520	-0.324672	-0.517855	-0.907949	0.707563	0.014396
54.000000	0.435960	-0.224914	0.480829	-0.117999	0.276922	0.024666	-0.104612	0.486704	-0.314569	0.044137	0.218025	-0.847963	0.445573	-0.765225	-0.067465	1.120398	-1.233456	0.277835	0.487550	-0.562913	-0.030755	0.319052	-3.430421	-0.277835	0.466660	-0.383805	-0.192423	-0.519305	-1.298243	-0.458630	-0.571354	-0.908880	0.780405	0.060558
55.000000	0.544582	-0.160747	0.651912	0.049303	0.353886	0.177717	0.025486	0.654553	-0.133118	0.164364	0.298520	-0.625770	0.620145	-0.531952	0.092829	1.073938	-1.082646	0.415091	0.632754	-0.423778	0.106993	0.621322	-2.921251	-0.415091	0.613157	-0.293957	-0.090104	-0.299853	-1.265773	-0.438383	-0.518159	-0.801540	0.932570	0.313364
56.000000	0.664987	0.123455	0.879725	0.273458	0.547645	0.456478	0.297392	0.866453	0.136272	0.391939	0.477375	-0.283758	0.853805	-0.271390	0.327367	1.096579	-0.570280	0.621832	0.849978	-0.206813	0.323422	0.951518	-2.069900	-0.621832	0.833646	-0.101626	0.125838	0.026008	-0.961328	-0.248015	-0.320179	-0.523147	0.987905	0.603747
57.000000	0.759318	0.478303	1.114935	0.473368	0.743036	0.756644	0.641301	1.082611	0.395884	0.608353	0.616425	0.054567	1.095945	-0.072683	0.520810	1.029844	-0.130795	0.775520	1.090221	-0.001436	0.487831	1.081763	-1.309526	-0.775520	1.070814	0.087143	0.325202	0.260180	-0.536943	-0.024178	-0.080187	-0.147654	0.853165	0.750089
58.000000	0.823606	0.739896	1.288705	0.591531	0.880240	1.047869	0.999542	1.243726	0.570910	0.737841	0.654867	0.425956	1.264086	0.026741	0.614814	0.761337	0.065216	0.793166	1.266693	0.133613	0.536819	0.924706	-1.021933	-0.793166	1.238747	0.179315	0.407843	0.302562	-0.213179	0.097944	0.080449	0.161520	0.618448	0.748849
59.000000	0.876251	0.792624	1.361798	0.613189	0.965764	1.268087	1.213969	1.317026	0.655402	0.796011	0.661687	0.715948	1.327085	0.042719	0.630748	0.478279	0.234909	0.721094	1.325607	0.169498	0.504503	0.691743	-1.290826	-0.721093	1.282291	0.144401	0.380928	0.258142	-0.040146	0.074894	0.089670	0.260475	0.500279	0.693332
60.000000	0.872847	0.621081	1.282761	0.530677	0.921538	1.259699	1.161800	1.255568	0.637348	0.708693	0.575265	0.704519	1.256049	-0.021478	0.519099	0.249205	0.298022	0.631896	1.233657	0.052568	0.346255	0.429544	-1.938726	-0.631896	1.168739	-0.048215	0.208557	0.095993	-0.027078	-0.144635	-0.119873	0.068714	0.622587	0.694191
61.000000	0.808160	0.379994	1.081205	0.416868	0.769406	1.026694	0.961853	1.068902	0.587671	0.489273	0.338763	0.453944	1.067464	-0.065161	0.308786	-0.016700	0.266493	0.537428	1.022603	-0.139030	0.081370	0.053033	-2.367580	-0.537428	0.949358	-0.310093	-0.071168	-0.200611	-0.077444	-0.484810	-0.452908	-0.281047	0.901322	0.757882
62.000000	0.746948	0.219149	0.846659	0.363472	0.631539	0.723756	0.763903	0.836964	0.590266	0.283096	0.038494	0.159955	0.836917	0.001836	0.126983	-0.280806	0.327918	0.416908	0.778306	-0.260536	-0.163858	-0.368911	-1.908989	-0.416908	0.718240	-0.491327	-0.312415	-0.484925	-0.017506	-0.777199	-0.728172	-0.530663	1.131023	0.751605
63.000000	0.717776	0.124313	0.671947	0.385405	0.564852	0.518273	0.612452	0.671451	0.624699	0.172735	-0.213459	-0.051751	0.666044	0.140712	0.034671	-0.468996	0.330792	0.252679	0.600449	-0.272698	-0.315149	-0.706281	-0.579681	-0.252679	0.555086	-0.555857	-0.446126	-0.669631	0.138742	-0.923346	-0.846627	-0.544500	1.163472	0.566986
64.000000	0.714379	0.053703	0.608897	0.456236	0.594600	0.494801	0.494965	0.618176	0.670482	0.191400	-0.292696	-0.184111	0.607377	0.330588	0.037966	-0.490663	0.105415	0.073270	0.536383	-0.184192	-0.342725	-0.840180	1.035327	-0.073270	0.497265	-0.530102	-0.482790	-0.753229	0.236849	-0.897556	-0.813290	-0.371957	1.012381	0.267849
65.000000	0.737988	0.000044	0.604422	0.545405	0.694372	0.536830	0.364213	0.606620	0.727450	0.297334	-0.224704	-0.326508	0.595833	0.559261	0.096920	-0.372048	-0.272626	-0.068503	0.525384	-0.035059	-0.287101	-0.785443	2.381816	0.068503	0.483196	-0.474641	-0.471194	-0.768792	0.181816	-0.807543	-0.750943	-0.198167	0.823343	0.043752
66.000000	0.758131	-0.050959	0.588849	0.609117	0.751072	0.482334	0.224938	0.576256	0.738891	0.355933	-0.230751	-0.473363	0.563525	0.646215	0.103114	-0.397832	-0.616469	-0.186936	0.490113	0.028383	-0.261838	-0.696936	3.052100	0.186936	0.442506	-0.498537	-0.512330	-0.760736	-0.004049	-0.797607	-0.793758	-0.209892	0.727368	-0.008928
67.000000	0.755015	-0.022324	0.556410	0.609309	0.691668	0.316433	0.157523	0.545125	0.673967	0.280411	-0.419085	-0.555981	0.517191	0.469339	-0.002980	-0.726314	-0.722264	-0.266370	0.417821	-0.091422	-0.333097	-0.707084	2.870554	0.266370	0.385226	-0.639372	-0.653911	-0.775550	-0.198569	-0.899521	-0.974467	-0.455288	0.726533	0.012842
68.000000	0.750216	0.121085	0.488472	0.515201	0.545480	0.111334	0.176146	0.486687	0.551516	0.100710	-0.669485	-0.583679	0.442016	0.161144	-0.168510	-1.095542	-0.563290	-0.223326	0.300480	-0.317588	-0.474843	-0.772321	2.007242	0.223326	0.299203	-0.835795	-0.840371	-0.796820	-0.283750	-1.087170	-1.219743	-0.805912	0.718908	-0.018657
69.000000	0.731494	0.227390	0.339240	0.308938	0.353973	-0.074844	0.192233	0.325003	0.352191	-0.118774	-0.837226	-0.619595	0.282632	-0.170713	-0.343779	-1.179395	-0.357092	-0.130603	0.128238	-0.561493	-0.633353	-0.723671	0.800917	0.130603	0.139893	-1.027234	-1.009023	-0.739470	-0.238641	-1.326359	-1.430849	-1.074942	0.614574	-0.086733
70.000000	0.737452	0.275692	0.160850	0.086385	0.203683	-0.178473	0.213367	0.127133	0.149437	-0.274498	-0.832101	-0.607401	0.096050	-0.415386	-0.467280	-0.891240	-0.220819	-0.106226	-0.028840	-0.718272	-0.731646	-0.587128	-0.405849	0.106226	-0.036578	-1.135016	-1.103299	-0.642326	-0.154996	-1.531847	-1.552308	-1.192242	0.419867	-0.111736
71.000000	0.765140	0.361996	0.048743	-0.039200	0.162730	-0.143202	0.304547	0.005253	0.060065	-0.283050	-0.599373	-0.491266	-0.009037	-0.462600	-0.471299	-0.278886	-0.054672	-0.133541	-0.108163	-0.704893	-0.715823	-0.472561	-1.305980	0.133541	-0.136261	-1.108703	-1.107610	-0.610892	-0.176020	-1.653745	-1.636510	-1.266504	0.137933	-0.085937
72.000000	0.726845	0.439295	0.055877	-0.054899	0.191466	0.006098	0.435197	0.007956	0.077761	-0.199974	-0.238577	-0.345150	0.012212	-0.367414	-0.391662	0.436349	0.192303	-0.174923	-0.078790	-0.564429	-0.629593	-0.377834	-1.649793	0.174923	-0.100589	-0.976614	-1.074878	-0.631740	-0.315553	-1.731700	-1.743114	-1.403516	-0.281694	-0.055639
73.000000	0.651788	0.454924	0.225127	0.054249	0.257772	0.216605	0.624144	0.177753	0.181220	-0.102540	0.029627	-0.094932	0.191805	-0.203581	-0.306478	0.812472	0.548929	-0.224796	0.105197	-0.354944	-0.547801	-0.347502	-1.327612	0.224796	0.100299	-0.787117	-1.038517	-0.632166	-0.386214	-1.792462	-1.821871	-1.569750	-0.805672	-0.076823
74.000000	0.592140	0.429214	0.466986	0.246180	0.331750	0.429628	0.899565	0.419495	0.333075	-0.029663	0.105620	0.319625	0.436119	-0.048468	-0.256301	0.638610	0.989660	-0.285312	0.347096	-0.169499	-0.516084	-0.378059	-0.541199	0.285312	0.355092	-0.623897	-1.015428	-0.556042	-0.255394	-1.841269	-1.851154	-1.699607	-1.251731	-0.128334
75.000000	0.528697	0.406063	0.576075	0.343632	0.320864	0.468027	1.091033	0.529124	0.398136	-0.052679	-0.009849	0.610378	0.544146	-0.024166	-0.301824	0.107112	1.174264	-0.338974	0.443501	-0.136414	-0.578320	-0.442342	0.166062	0.338974	0.458549	-0.582997	-1.068129	-0.479980	-0.072104	-1.888910	-1.895148	-1.798234	-1.417170	-0.126783
76.000000	0.445319	0.405147	0.489112	0.265090	0.188457	0.185997	1.025219	0.453929	0.309006	-0.190788	-0.296641	0.525353	0.460145	-0.107961	-0.444619	-0.525300	0.771209	-0.378858	0.359551	-0.223523	-0.717576	-0.564877	0.253291	0.378858	0.372858	-0.644711	-1.204721	-0.527028	-0.037684	-1.932118	-1.970733	-1.886846	-1.240135	-0.073631
77.000000	0.364225	0.408659	0.315801	0.142434	0.062267	-0.196672	0.813948	0.303992	0.206448	-0.309255	-0.562294	0.231184	0.301218	-0.088927	-0.520563	-0.981262	0.023040	-0.413251	0.210495	-0.224610	-0.793258	-0.661960	-0.268055	0.413251	0.221957	-0.655387	-1.290690	-0.627696	-0.105772	-1.920770	-1.991588	-1.884393	-0.844096	-0.069930
78.000000	0.301873	0.405353	0.136707	0.079082	0.069227	-0.322370	0.655872	0.149025	0.198149	-0.282185	-0.579402	0.003199	0.142985	0.104824	-0.438305	-1.026441	-0.580014	-0.472540	0.056770	-0.065215	-0.717176	-0.661016	-0.804845	0.472540	0.060715	-0.552300	-1.233168	-0.661445	-0.115032	-1.823127	-1.899597	-1.711150	-0.462791	-0.154536
79.000000	0.241906	0.430339	-0.036435	0.063066	0.217279	-0.133297	0.598544	-0.012888	0.249088	-0.119637	-0.322938	-0.062993	-0.015946	0.307703	-0.266835	-0.634177	-0.715766	-0.596976	-0.080904	0.110139	-0.537403	-0.559424	-0.751388	0.596976	-0.094260	-0.427779	-1.079621	-0.579392	0.018603	-1.703214	-1.745169	-1.432457	-0.232507	-0.236294
80.000000	0.215836	0.549188	-0.144558	0.102974	0.468127	0.208462	0.621162	-0.127722	0.347454	0.116506	0.076968	0.023417	-0.122512	0.394926	-0.061800	-0.032452	-0.390007	-0.726609	-0.149537	0.192587	-0.325111	-0.381593	-0.016801	0.726609	-0.170335	-0.324065	-0.894387	-0.386890	0.286858	-1.624305	-1.632496	-1.190439	-0.121233	-0.259369
81.000000	0.332616	0.767424	-0.097039	0.258228	0.805353	0.632304	0.743547	-0.085317	0.476438	0.393200	0.472106	0.248387	-0.089709	0.341481	0.179276	0.437761	-0.030414	-0.761507	-0.093652	0.186580	-0.110653	-0.221766	1.019456	0.761507	-0.121519	-0.224447	-0.699208	-0.149878	0.636743	-1.580552	-1.605410	-1.041460	-0.019271	-0.270952
82.000000	0.641205	1.035449	0.083637	0.516072	1.172302	1.101289	0.978036	0.101471	0.592682	0.670001	0.718775	0.571668	0.072525	0.186155	0.409418	0.537554	0.034986	-0.681962	0.053022	0.138355	0.066072	-0.192066	1.874454	0.681962	0.019549	-0.148734	-0.540461	0.019100	0.989519	-1.556327	-1.617008	-0.926206	0.105359	-0.301808
83.000000	1.032794	1.289604	0.265780	0.768428	1.454539	1.469867	1.246303	0.287788	0.711669	0.880704	0.761434	0.839080	0.251583	0.081552	0.545238	0.300583	-0.176689	-0.534754	0.182665	0.127403	0.148508	-0.293483	2.223144	0.534753	0.168301	-0.093978	-0.478113	0.046695	1.223241	-1.544784	-1.629149	-0.806624	0.135140	-0.347363
84.000000	1.395548	1.475585	0.404103	0.971391	1.619780	1.676281	1.441250	0.420996	0.877731	1.011241	0.737045	0.908061	0.392224	0.136282	0.608303	0.094716	-0.595339	-0.387477	0.279957	0.194719	0.168980	-0.415727	2.109918	0.387478	0.282984	-0.043664	-0.499401	-0.048691	1.249834	-1.555638	-1.658749	-0.723148	0.067350	-0.415522
85.000000	1.648351	1.558891	0.478201	1.091952	1.680765	1.752658	1.480788	0.474253	1.021985	1.068929	0.849009	0.725878	0.461475	0.260988	0.639610	0.307994	-1.065386	-0.357390	0.325386	0.254411	0.160439	-0.488570	1.864282	0.357389	0.324489	-0.050310	-0.586734	-0.230548	1.044599	-1.650049	-1.772556	-0.744695	-0.021399	-0.505322
86.000000	1.715917	1.530941	0.429541	1.084660	1.650527	1.742374	1.390907	0.400158	1.039659	1.067742	1.172658	0.397290	0.412314	0.337472	0.650897	0.992780	-1.147948	-0.482053	0.256762	0.246441	0.120082	-0.430124	1.845542	0.482053	0.247280	-0.135678	-0.696911	-0.376533	0.724213	-1.831245	-1.944320	-0.819773	-0.161584	-0.646723
87.000000	1.675457	1.467562	0.331312	1.026653	1.589322	1.731258	1.353300	0.288417	0.979226	1.050220	1.470563	0.279664	0.319076	0.378406	0.665355	1.679158	-0.559391	-0.576909	0.159312	0.220899	0.111378	-0.181577	2.125567	0.576909	0.136969	-0.216553	-0.713055	-0.319246	0.551353	-1.970310	-2.018342	-0.793459	-0.337618	-0.878346
88.000000	1.679445	1.475985	0.307312	1.032834	1.564458	1.775811	1.487583	0.255981	0.926007	1.042691	1.510531	0.578592	0.301043	0.409831	0.689643	1.876485	0.325045	-0.456289	0.153732	0.211399	0.161033	0.142738	2.295710	0.456289	0.117690	-0.225111	-0.606861	-0.077746	0.588181	-1.985684	-1.960973	-0.689045	-0.459681	-1.145596
89.000000	1.792917	1.582849	0.396375	1.148009	1.637925	1.910267	1.746558	0.344604	0.939887	1.099739	1.475488	1.087721	0.401367	0.460867	0.763138	1.729232	0.992888	-0.149055	0.268102	0.258064	0.260382	0.444676	1.971594	0.149055	0.227714	-0.138906	-0.426260	0.199261	0.653221	-1.909509	-1.832386	-0.616893	-0.535698	-1.364498
90.000000	1.928476	1.666597	0.483241	1.262302	1.762796	2.091989	2.001717	0.443996	0.983556	1.214952	1.533022	1.510427	0.497584	0.499296	0.861922	1.562460	1.332657	0.081250	0.374101	0.310781	0.365967	0.681550	1.413306	-0.081250	0.331317	-0.040179	-0.237125	0.395380	0.634926	-1.847243	-1.692524	-0.576571	-0.718910	-1.482992
91.000000	1.928293	1.578760	0.386392	1.201058	1.764543	2.150477	2.098422	0.355106	0.887970	1.221103	1.526732	1.682369	0.396754	0.377521	0.823896	1.337929	1.298041	0.055562	0.260428	0.198770	0.337924	0.717817	1.148085	-0.055562	0.213250	-0.109914	-0.172237	0.404767	0.539099	-1.927642	-1.671172	-0.601872	-1.073832	-1.485419
92.000000	1.796316	1.374015	0.129544	0.996996	1.622764	2.041927	1.994274	0.095492	0.663607	1.075535	1.407316	1.576620	0.126210	0.129352	0.635711	1.033777	0.873197	-0.102149	-0.039424	-0.059854	0.175646	0.572337	1.272006	0.102149	-0.097157	-0.346365	-0.258048	0.253702	0.432163	-2.118487	-1.796437	-0.721192	-1.398572	-1.470986
93.000000	1.684124	1.281003	-0.080894	0.853438	1.518257	1.926733	1.863686	-0.129945	0.540980	0.961702	1.321410	1.354935	-0.113056	-0.015947	0.491672	0.828285	0.467823	-0.267620	-0.285150	-0.255500	0.068456	0.489800	1.546137	0.267620	-0.357207	-0.550704	-0.332644	0.141273	0.434340	-2.246140	-1.922958	-0.805814	-1.546145	-1.580240
94.000000	1.659129	1.423886	-0.152122	0.825310	1.532948	1.883770	1.900792	-0.220596	0.567548	0.960454	1.281117	1.244571	-0.217934	-0.020603	0.459444	0.703926	0.509996	-0.454354	-0.378534	-0.334741	0.083105	0.540143	1.732354	0.454354	-0.453991	-0.654006	-0.317395	0.161075	0.567680	-2.262850	-1.946866	-0.730173	-1.568220	-1.747704
95.000000	1.682198	1.719489	-0.146217	0.805106	1.592092	1.835282	2.082765	-0.214495	0.592172	0.996619	1.254519	1.296830	-0.225394	-0.041806	0.474790	0.633969	0.950546	-0.692705	-0.378429	-0.389352	0.146371	0.638603	1.812778	0.692705	-0.449454	-0.735049	-0.273202	0.267097	0.705772	-2.267017	-1.904487	-0.531860	-1.512767	-1.812521
96.000000	1.775764	2.029556	-0.065311	0.827894	1.705623	1.813914	2.303277	-0.118607	0.654730	1.092029	1.354858	1.473255	-0.156831	-0.054164	0.577954	0.826819	1.496790	-0.962660	-0.297315	-0.383496	0.271501	0.836080	1.979655	0.962661	-0.368842	-0.774553	-0.193061	0.435033	0.725946	-2.288923	-1.855408	-0.333438	-1.490622	-1.820300
97.000000	1.947363	2.214765	0.086383	0.974610	1.921624	1.944263	2.457676	0.060857	0.849675	1.295221	1.672032	1.651962	-0.026765	0.043429	0.810357	1.417255	1.837864	-1.176011	-0.155824	-0.284642	0.482313	1.210973	2.226507	1.176010	-0.250480	-0.749061	-0.065978	0.633489	0.569711	-2.331754	-1.853529	-0.270787	-1.566959	-1.871172
98.000000	2.137155	2.243399	0.239280	1.167451	2.162993	2.172563	2.446141	0.235873	1.082115	1.522465	2.089592	1.618904	0.105861	0.192032	1.078042	2.291248	1.805550	-1.249153	-0.034231	-0.175004	0.712963	1.729792	2.389060	1.249154	-0.161990	-0.740826	0.051296	0.843239	0.333174	-2.465105	-1.961332	-0.421563	-1.640888	-1.950782
99.000000	2.363585	2.220706	0.340491	1.300322	2.326488	2.342374	2.344778	0.330673	1.223934	1.663528	2.336807	1.456380	0.195182	0.288754	1.250416	2.985320	1.625460	-1.179402	0.027112	-0.109296	0.869476	2.183566	2.427149	1.179402	-0.100999	-0.795650	0.112689	1.030118	0.184610	-2.709499	-2.179552	-0.740092	-1.594274	-2.014209
100.000000	2.632997	2.236294	0.384357	1.350923	2.357409	2.393487	2.313829	0.367082	1.233922	1.668279	2.241574	1.473527	0.256461	0.277333	1.251977	2.950114	1.708397	-0.972251	0.059128	-0.112475	0.867560	2.200205	2.359494	0.972251	-0.047386	-0.885602	0.088807	1.064913	0.139416	-2.997224	-2.433096	-1.093119	-1.402565	-2.065583
101.000000	2.854750	2.319833	0.418335	1.345396	2.267836	2.366226	2.399778	0.398101	1.142210	1.556758	1.898296	1.702571	0.320847	0.179337	1.114875	2.199206	2.006523	-0.638408	0.097416	-0.187663	0.717567	1.649808	2.207063	0.638407	0.006032	-0.971041	-0.026829	0.891969	0.138027	-3.265988	-2.654512	-1.353377	-1.145128	-2.209765
102.000000	2.942029	2.447700	0.456334	1.305442	2.117685	2.305171	2.503339	0.434053	1.005419	1.393081	1.534112	1.887064	0.370739	0.066779	0.950150	1.334344	2.163385	-0.268330	0.130216	-0.288412	0.526975	0.903964	1.964701	0.268330	0.050220	-1.034089	-0.181663	0.618588	0.113904	-3.500540	-2.847646	-1.488489	-0.869045	-2.479875
103.000000	2.876994	2.564994	0.479815	1.265788	1.977645	2.236213	2.510751	0.466530	0.906101	1.266978	1.336581	1.875847	0.394191	0.012422	0.866758	0.948825	2.197578	0.015606	0.148493	-0.342941	0.410309	0.449445	1.720530	-0.015606	0.076988	-1.056998	-0.279281	0.425122	0.036554	-3.674695	-2.988105	-1.521640	-0.645100	-2.755434
104.000000	2.686609	2.601063	0.494731	1.249378	1.892183	2.190049	2.450505	0.491289	0.898574	1.239522	1.334454	1.750345	0.414598	0.091820	0.904111	1.123686	2.273301	0.144638	0.177000	-0.283247	0.430949	0.439031	1.514671	-0.144638	0.105882	-1.013066	-0.263278	0.422726	-0.048447	-3.751915	-3.024318	-1.456848	-0.589403	-2.929562
105.000000	2.439369	2.555942	0.546880	1.265370	1.857626	2.169704	2.384956	0.547463	1.000873	1.303336	1.425171	1.594555	0.485101	0.357825	1.023108	1.553884	2.254484	0.153163	0.269326	-0.068355	0.568380	0.712009	1.117727	-0.153163	0.193251	-0.874141	-0.136655	0.549906	-0.123760	-3.758116	-2.975010	-1.311599	-0.657097	-2.937098
106.000000	2.236266	2.484498	0.653328	1.317087	1.845737	2.130220	2.275907	0.653737	1.173358	1.404647	1.574395	1.386544	0.610556	0.706028	1.167334	2.104193	2.070765	0.090018	0.418116	0.209065	0.740115	1.085683	0.337482	-0.090018	0.335463	-0.697442	0.037409	0.693585	-0.192511	-3.762952	-2.898857	-1.146368	-0.703431	-2.770186
107.000000	2.075520	2.378424	0.733998	1.313908	1.757843	1.993597	2.078092	0.727965	1.233713	1.413300	1.720932	1.122907	0.698987	0.861127	1.219091	2.642410	1.860265	-0.045566	0.516400	0.319790	0.809944	1.393048	-0.813415	0.045566	0.415884	-0.657316	0.123447	0.760894	-0.265305	-3.834136	-2.876080	-1.040603	-0.723775	-2.532723
108.000000	1.944229	2.305251	0.780278	1.234470	1.576347	1.801853	1.947072	0.776620	1.145549	1.276529	1.697272	1.002784	0.751923	0.735333	1.099163	2.706813	1.743557	-0.214315	0.570039	0.192755	0.730850	1.508507	-2.086506	0.214315	0.453043	-0.776215	0.084533	0.748644	-0.307856	-3.942515	-2.914579	-1.023766	-0.854514	-2.353033
109.000000	1.908042	2.344890	0.838997	1.193301	1.417576	1.673069	2.024146	0.853193	1.079266	1.100009	1.488634	1.172466	0.819351	0.535480	0.919143	2.162432	1.813863	-0.336294	0.643208	-0.010653	0.616220	1.506117	-3.029629	0.336294	0.536144	-0.903571	0.031714	0.798138	-0.221369	-3.989266	-2.930919	-1.040662	-1.095776	-2.283616
110.000000	1.955050	2.423091	0.836036	1.193648	1.316059	1.593160	2.188556	0.855059	1.068457	0.952611	1.244141	1.423769	0.818571	0.420374	0.795405	1.493365	1.939897	-0.359984	0.645633	-0.164147	0.517350	1.466254	-3.344082	0.359984	0.565049	-0.996839	0.003325	0.923792	-0.046796	-4.007623	-2.953106	-1.103182	-1.222297	-2.297872
111.000000	2.022536	2.440742	0.719728	1.146265	1.228482	1.492685	2.271144	0.730535	0.998952	0.799106	1.023051	1.481128	0.707426	0.309013	0.684100	1.042090	1.866982	-0.277277	0.527227	-0.297683	0.367716	1.298483	-3.147749	0.277277	0.472825	-1.116929	-0.085757	0.907534	0.017637	-4.141177	-3.130278	-1.352321	-1.102228	-2.332978
112.000000	2.037249	2.331606	0.519631	0.993885	1.088352	1.283155	2.127485	0.530706	0.772609	0.569357	0.753332	1.229865	0.523420	0.016044	0.457086	0.758990	1.469216	-0.131987	0.334163	-0.533247	0.101028	0.953665	-2.815142	0.131987	0.292407	-1.329349	-0.310353	0.629272	-0.124024	-4.447424	-3.522952	-1.829256	-0.812105	-2.354180
113.000000	1.962026	2.109243	0.291846	0.791470	0.892888	0.943430	1.751271	0.298676	0.475080	0.297526	0.421632	0.770814	0.306076	-0.393530	0.134934	0.568033	0.708210	0.035242	0.102469	-0.848116	-0.226986	0.571276	-2.595744	-0.035242	0.052518	-1.601892	-0.602291	0.244748	-0.355286	-4.804055	-3.968549	-2.299918	-0.487168	-2.407752
114.000000	1.912222	1.904760	0.185376	0.689435	0.791097	0.674347	1.360829	0.166241	0.320582	0.157588	0.221527	0.341897	0.178883	-0.614136	-0.055294	0.559729	-0.114067	0.201962	-0.042485	-0.999186	-0.407802	0.371223	-2.329355	-0.201962	-0.104828	-1.742994	-0.768797	0.009780	-0.447431	-5.011366	-4.198209	-2.443222	-0.248773	-2.533938
115.000000	2.089247	1.878280	0.362321	0.826474	0.988802	0.792861	1.228547	0.307462	0.453040	0.339103	0.427367	0.150411	0.314201	-0.450786	0.107912	0.966131	-0.467936	0.306329	0.081078	-0.792131	-0.225792	0.539436	-1.655913	-0.306329	0.005869	-1.559172	-0.621835	0.130904	-0.223634	-4.895542	-4.035254	-2.099250	-0.154502	-2.688627
116.000000	2.538521	2.085604	0.779636	1.212691	1.483619	1.334855	1.448224	0.699590	0.853076	0.831811	0.992760	0.284535	0.703294	0.032751	0.580272	1.694523	-0.242579	0.332323	0.453002	-0.296324	0.271569	1.028819	-0.603931	-0.332323	0.359909	-1.084619	-0.178526	0.584390	0.248581	-4.484442	-3.560405	-1.431131	-0.230549	-2.827367
117.000000	3.011468	2.392219	1.160409	1.632334	1.975331	1.905966	1.788715	1.070876	1.304238	1.323172	1.529703	0.595445	1.067642	0.583036	1.050817	2.286778	0.237271	0.288450	0.784672	0.206983	0.746016	1.491668	0.369813	-0.288451	0.681865	-0.628550	0.267720	1.060226	0.718833	-4.095686	-3.109605	-0.857449	-0.458112	-2.965895
118.000000	3.275363	2.617142	1.297443	1.872083	2.230190	2.221110	2.008029	1.212603	1.619259	1.564091	1.756675	0.880625	1.191184	1.080355	1.327519	2.460536	0.647701	0.155164	0.874912	0.586655	1.005317	1.682597	0.869560	-0.155164	0.775783	-0.389709	0.513201	1.320894	1.006896	-3.954215	-2.901496	-0.619798	-0.710234	-3.107629
119.000000	3.347657	2.669206	1.203386	1.904270	2.272845	2.341180	2.088775	1.142002	1.781764	1.601169	1.696701	1.055195	1.097240	1.548996	1.441904	2.233609	0.863387	-0.002241	0.772587	0.901216	1.130803	1.733851	0.916831	0.002241	0.687491	-0.275489	0.619634	1.437004	1.125832	-3.997087	-2.875241	-0.657492	-0.835328	-3.208240
120.000000	3.255761	2.565025	0.963480	1.764768	2.164543	2.316141	2.076101	0.936101	1.768715	1.507509	1.483240	1.081819	0.873371	1.778908	1.415553	1.753590	0.905600	-0.157339	0.570592	1.042438	1.145971	1.725327	0.840542	0.157339	0.496937	-0.256739	0.638127	1.488830	1.165264	-4.161232	-2.969230	-0.866397	-0.841205	-3.293397
121.000000	2.998451	2.391623	0.727966	1.527977	1.918901	2.154192	2.023844	0.721159	1.566801	1.286981	1.174522	1.050268	0.654369	1.558857	1.245162	1.135653	0.858430	-0.359174	0.380398	0.889881	1.016032	1.486924	0.832706	0.359174	0.307650	-0.369596	0.548788	1.396822	1.137688	-4.425981	-3.153501	-1.149747	-0.842683	-3.399346
122.000000	2.706949	2.220468	0.659532	1.314195	1.628692	1.975575	1.994703	0.654577	1.274622	1.013411	0.873259	1.049165	0.596766	1.019509	1.020098	0.551191	0.758805	-0.598491	0.349355	0.561208	0.829841	1.079385	0.801563	0.598491	0.270681	-0.516800	0.417508	1.205655	1.038659	-4.663305	-3.302419	-1.393503	-0.884242	-3.492858
123.000000	2.550758	2.162954	0.761093	1.205122	1.444536	1.901130	2.015576	0.752002	1.027980	0.833860	0.778527	1.042373	0.706859	0.473225	0.900929	0.297667	0.674503	-0.850703	0.498146	0.259447	0.746058	0.815601	0.629637	0.850703	0.410321	-0.570239	0.383288	1.094550	0.933596	-4.719970	-3.307398	-1.556040	-0.903954	-3.551631
124.000000	2.554978	2.218690	0.881121	1.189370	1.390207	1.894799	2.012060	0.867858	0.888302	0.802666	0.883353	1.002160	0.817849	0.140073	0.933802	0.379901	0.718126	-1.043659	0.649983	0.104211	0.812724	0.835081	0.312215	1.043659	0.568904	-0.516212	0.484370	1.138908	0.885965	-4.611851	-3.216489	-1.706816	-0.810273	-3.586534
125.000000	2.616880	2.229012	0.881336	1.180390	1.375754	1.826465	1.899842	0.862192	0.812513	0.841516	1.006022	0.948978	0.805587	0.013600	1.037278	0.569736	0.923087	-1.074993	0.659233	0.084907	0.956515	1.052293	-0.011233	1.074993	0.594374	-0.433163	0.633616	1.289504	0.906156	-4.477097	-3.150438	-1.926700	-0.633829	-3.619921
126.000000	2.711760	2.229097	0.810408	1.187164	1.453391	1.771803	1.821709	0.782024	0.830273	0.998072	1.211326	1.024779	0.749362	0.091765	1.259339	0.956434	1.353620	-0.972073	0.600557	0.221974	1.218329	1.419801	-0.046783	0.972074	0.548485	-0.284903	0.859002	1.542355	1.077944	-4.311370	-3.064550	-2.109508	-0.481065	-3.650020
127.000000	2.858678	2.291864	0.789378	1.297935	1.702819	1.854966	1.865367	0.750331	1.013086	1.332057	1.617281	1.235091	0.757336	0.390010	1.634197	1.664771	1.896558	-0.837158	0.585612	0.541601	1.626685	1.924975	0.302995	0.837158	0.541416	-0.021122	1.217343	1.906533	1.424703	-4.093278	-2.883518	-2.150155	-0.409832	-3.670848
128.000000	2.966553	2.306546	0.782736	1.444040	1.974111	1.940293	1.847431	0.740347	1.270605	1.666581	2.016311	1.337463	0.772157	0.758501	1.977063	2.396960	2.182898	-0.723716	0.565980	0.894510	2.001523	2.394717	0.789454	0.723716	0.513395	0.237233	1.548467	2.210204	1.727409	-3.951677	-2.729738	-2.184797	-0.421759	-3.685633
129.000000	2.967406	2.236910	0.696591	1.498795	2.112058	1.887103	1.681737	0.655576	1.458125	1.847759	2.138872	1.235726	0.685414	1.044277	2.155836	2.734619	2.016371	-0.628099	0.458750	1.124541	2.197996	2.675900	1.285310	0.628099	0.391207	0.375006	1.712295	2.332376	1.836381	-3.936070	-2.700741	-2.313406	-0.480221	-3.758394
130.000000	2.969055	2.210660	0.611977	1.556479	2.225173	1.830601	1.550025	0.558873	1.621718	1.971100	2.055699	1.075566	0.570640	1.326169	2.275398	2.631148	1.561146	-0.514169	0.351254	1.319185	2.328346	2.843202	1.994687	0.514169	0.269931	0.482395	1.830037	2.414332	1.895304	-3.890045	-2.650669	-2.393536	-0.570574	-3.972718
131.000000	3.155649	2.353124	0.677402	1.795649	2.497321	1.980076	1.643198	0.609731	1.942018	2.214162	2.058267	1.042206	0.595834	1.809732	2.525695	2.406117	1.084338	-0.402631	0.381373	1.683721	2.585445	2.959963	3.031392	0.402632	0.292883	0.744970	2.059124	2.545529	2.069431	-3.675685	-2.410154	-2.263503	-0.654622	-4.303540
132.000000	3.534822	2.619708	0.864503	2.182365	2.899601	2.284461	1.892681	0.800425	2.403220	2.578221	2.264766	1.130908	0.762314	2.446015	2.920450	2.378010	0.777919	-0.340170	0.533064	2.189413	2.955402	3.027881	4.103210	0.340169	0.445561	1.133363	2.375331	2.662864	2.276443	-3.382052	-2.078699	-2.026266	-0.625567	-4.660560
133.000000	3.925823	2.877048	1.068269	2.579325	3.301773	2.606983	2.145257	1.008700	2.846913	2.950963	2.605889	1.262285	0.963680	2.956254	3.320239	2.614615	0.833267	-0.320654	0.699540	2.612802	3.322708	3.137576	4.821312	0.320653	0.604146	1.458161	2.689633	2.781372	2.369150	-3.159484	-1.849498	-1.937078	-0.506243	-4.999469
134.000000	4.247245	3.120226	1.271637	2.958530	3.668181	2.960640	2.419803	1.207513	3.253978	3.296241	2.983850	1.488186	1.162241	3.260724	3.661266	2.923768	1.254662	-0.310030	0.853928	2.878935	3.674831	3.320227	5.070274	0.310030	0.740550	1.670874	2.991766	2.964312	2.353920	-3.010534	-1.718354	-2.060428	-0.413382	-5.323102
135.000000	4.604190	3.445819	1.525571	3.399809	4.070890	3.396818	2.793850	1.464498	3.730989	3.692332	3.395819	1.880646	1.416357	3.597588	4.030588	3.227822	1.869562	-0.240313	1.078780	3.172998	4.103898	3.609505	4.976913	0.240313	0.962779	1.933169	3.383793	3.273758	2.362175	-2.783604	-1.510101	-2.199291	-0.372745	-5.579909
136.000000	5.069475	3.854072	1.880832	3.935681	4.562540	3.889071	3.200774	1.825716	4.322148	4.215211	3.943500	2.390019	1.789057	4.109080	4.522234	3.760800	2.691414	-0.051867	1.431352	3.657745	4.673474	4.171725	4.732316	0.051867	1.334646	2.379175	3.931822	3.768620	2.478583	-2.385930	-1.122114	-2.212779	-0.362610	-5.693703
137.000000	5.473302	4.196492	2.234561	4.376546	4.973058	4.269742	3.484571	2.181945	4.810482	4.717671	4.558389	2.833956	2.165386	4.511537	5.006331	4.598890	3.716304	0.183428	1.793334	4.107214	5.218229	4.941798	4.407270	-0.183428	1.717523	2.834300	4.452222	4.294275	2.529493	-2.013817	-0.741775	-2.268976	-0.311053	-5.654658
138.000000	5.669152	4.389277	2.479833	4.608895	5.177674	4.444894	3.611322	2.444214	5.055245	5.065982	5.133339	3.037888	2.428087	4.650986	5.366923	5.593309	4.630541	0.361005	2.063739	4.326404	5.596115	5.653120	4.009061	-0.361005	1.997641	3.141193	4.812197	4.663256	2.409143	-1.823871	-0.528045	-2.455020	-0.207912	-5.571279
139.000000	5.736814	4.408782	2.699812	4.763291	5.310964	4.554976	3.610187	2.691957	5.229528	5.355984	5.685128	2.952753	2.657499	4.821423	5.700166	6.610422	5.127241	0.485833	2.325435	4.538739	5.920458	6.233807	3.564354	-0.485833	2.256765	3.430495	5.136677	4.940352	2.326024	-1.666436	-0.333569	-2.578575	-0.195590	-5.623836
140.000000	5.670217	4.179946	2.835881	4.803690	5.368790	4.651900	3.516095	2.838066	5.313170	5.532787	5.976741	2.753215	2.796163	5.030299	5.925211	7.126237	5.152373	0.523426	2.500778	4.772345	6.146762	6.500511	3.038276	-0.523426	2.427865	3.679420	5.388357	5.076496	2.353755	-1.489203	-0.141840	-2.658741	-0.324099	-5.807164
141.000000	5.476091	3.801329	2.752535	4.653679	5.285252	4.698344	3.453176	2.742379	5.165363	5.490637	5.831067	2.647976	2.711203	4.985979	5.902046	6.693779	4.723279	0.413434	2.415978	4.784210	6.125502	6.242245	2.495991	-0.413434	2.333761	3.703879	5.424884	4.923914	2.359902	-1.435473	-0.100209	-2.862205	-0.410975	-5.915648
142.000000	5.263612	3.489815	2.518480	4.420113	5.158971	4.707795	3.399199	2.499011	4.896794	5.343518	5.511096	2.539299	2.474805	4.717317	5.751331	5.791979	3.799785	0.220536	2.140433	4.576515	5.956939	5.691447	2.216371	-0.220536	2.040010	3.546758	5.327296	4.613168	2.298997	-1.516984	-0.156868	-3.113848	-0.359527	-5.866920
143.000000	5.078262	3.386716	2.300952	4.227132	5.081670	4.672260	3.293162	2.277508	4.713939	5.229002	5.255346	2.338496	2.259292	4.525514	5.656508	5.113807	2.567264	0.048628	1.888452	4.411882	5.848565	5.192167	2.483977	-0.048628	1.780937	3.442164	5.262960	4.347373	2.224483	-1.589499	-0.150719	-3.234984	-0.392157	-5.756852
144.000000	4.987128	3.543755	2.286299	4.214119	5.143602	4.670112	3.306263	2.254097	4.755007	5.263000	5.112108	2.233273	2.242450	4.583220	5.732504	4.902732	1.544621	-0.114336	1.855192	4.495557	5.936764	4.919398	3.370783	0.114336	1.757502	3.556372	5.357398	4.238256	2.249115	-1.531669	0.025777	-3.111447	-0.668958	-5.650993
145.000000	5.053028	3.901819	2.546641	4.444245	5.385411	4.819660	3.538232	2.514840	4.999965	5.502019	5.114223	2.354498	2.492356	4.760321	5.986896	5.037943	1.181390	-0.323527	2.110460	4.733732	6.216084	4.933158	4.598758	0.323527	2.023644	3.850698	5.641294	4.336458	2.408271	-1.340862	0.356475	-2.780912	-1.029124	-5.553897
146.000000	5.252791	4.334571	2.942749	4.794045	5.718818	5.083672	3.859307	2.926410	5.300212	5.851385	5.296503	2.645531	2.887858	4.891630	6.326872	5.325229	1.499713	-0.504476	2.528166	4.931708	6.560481	5.192785	5.654204	0.504476	2.448508	4.175218	6.007401	4.575879	2.536325	-1.105204	0.701223	-2.439424	-1.262973	-5.483191
147.000000	5.455362	4.685032	3.240524	5.048275	6.014451	5.305399	4.091547	3.241391	5.511276	6.160795	5.620566	2.936016	3.199898	4.962610	6.650376	5.777529	2.207716	-0.586938	2.872359	5.047706	6.858701	5.639630	6.166904	0.586938	2.798455	4.427380	6.333038	4.858160	2.492518	-0.878939	0.957025	-2.193125	-1.281356	-5.435077
148.000000	5.548591	4.854195	3.352971	5.127237	6.202953	5.364083	4.113427	3.363544	5.594693	6.354445	5.959848	3.005413	3.321212	5.004478	6.892115	6.429638	2.845303	-0.616609	3.028391	5.127456	7.075370	6.181893	5.996514	0.616608	2.949399	4.586504	6.567291	5.117096	2.297112	-0.634761	1.138258	-2.030901	-1.133315	-5.384289
149.000000	5.593270	4.933885	3.384565	5.152580	6.326577	5.295988	3.991891	3.391014	5.626553	6.466399	6.229187	2.910715	3.347471	5.056772	7.048668	7.074685	3.198446	-0.605663	3.073219	5.222419	7.211779	6.626203	5.177236	0.605663	2.977330	4.685653	6.707689	5.271640	2.033831	-0.362186	1.270075	-2.015237	-0.956954	-5.346287
150.000000	5.656204	5.059631	3.426131	5.185882	6.424857	5.228369	3.931626	3.406862	5.640442	6.525172	6.390539	2.878153	3.379701	5.125790	7.117025	7.309610	3.480666	-0.503014	3.091384	5.322927	7.263796	6.766788	3.954486	0.503014	2.979057	4.754721	6.758172	5.231883	1.770752	-0.119345	1.327910	-2.235473	-0.746353	-5.347597
151.000000	5.706488	5.177333	3.497518	5.161818	6.466786	5.212200	3.984034	3.447048	5.615509	6.513928	6.443974	2.931388	3.440478	5.175762	7.090808	7.071596	3.757169	-0.364862	3.117976	5.380849	7.239514	6.615128	2.731341	0.364862	2.998983	4.793778	6.738105	5.013626	1.542206	0.072391	1.347222	-2.578277	-0.418107	-5.353595
152.000000	5.743423	5.230440	3.594824	5.085777	6.449035	5.228363	4.121452	3.533345	5.598857	6.464307	6.386032	3.108659	3.530016	5.223976	7.031836	6.639484	4.047738	-0.348194	3.189079	5.436602	7.216752	6.410491	1.986091	0.348194	3.069699	4.860647	6.730748	4.809533	1.431856	0.291296	1.463781	-2.735424	-0.059040	-5.269731
153.000000	5.743274	5.229659	3.676287	5.008165	6.377516	5.195759	4.277504	3.625905	5.619935	6.387976	6.158874	3.392082	3.613122	5.291550	6.977957	6.167203	4.321156	-0.472021	3.290088	5.525277	7.228315	6.280055	1.896462	0.472021	3.165468	4.993581	6.776941	4.711980	1.431811	0.553560	1.693096	-2.608098	0.216355	-5.079725
154.000000	5.633346	5.137997	3.702650	4.938731	6.252437	5.080447	4.315978	3.672174	5.641230	6.275777	5.859720	3.554096	3.644382	5.356891	6.925214	5.841127	4.325669	-0.574440	3.368121	5.612478	7.227179	6.216131	2.206704	0.574440	3.237038	5.139805	6.832562	4.639538	1.394531	0.746530	1.880840	-2.409268	0.386048	-4.892626
155.000000	5.413646	4.968888	3.672464	4.879315	6.108749	4.982469	4.254022	3.656406	5.626259	6.179332	5.662222	3.498039	3.620941	5.413354	6.887085	5.767846	4.049313	-0.574137	3.386156	5.696161	7.197424	6.162507	2.638831	0.574137	3.263792	5.273597	6.867455	4.539978	1.285184	0.820757	1.960514	-2.313252	0.384570	-4.762765
156.000000	5.140953	4.767739	3.588762	4.801395	5.965630	4.986237	4.214526	3.577141	5.546591	6.093094	5.572425	3.342459	3.555471	5.431355	6.824377	5.774988	3.691840	-0.581144	3.333722	5.767119	7.110298	5.945395	3.034468	0.581144	3.238355	5.359416	6.845232	4.330715	1.138770	0.851655	1.976510	-2.334029	0.164364	-4.609057
157.000000	4.896259	4.563832	3.456238	4.681295	5.816168	5.062732	4.226950	3.447301	5.407527	5.953980	5.448287	3.206391	3.451011	5.396063	6.687624	5.617853	3.341241	-0.649353	3.224401	5.796279	6.954446	5.527717	3.265626	0.649353	3.159592	5.357202	6.732515	4.007264	0.944059	0.901878	1.964957	-2.411913	-0.173426	-4.431039
158.000000	4.714855	4.406887	3.277026	4.515966	5.661308	5.096334	4.218577	3.272195	5.270814	5.785824	5.197894	3.081285	3.293107	5.398069	6.518265	5.229907	3.033729	-0.712867	3.068180	5.823315	6.797031	5.115855	3.231833	0.712867	3.022063	5.323441	6.582086	3.720563	0.757521	0.992616	1.995896	-2.446810	-0.498947	-4.356587
159.000000	4.588465	4.341740	3.092334	4.313978	5.521991	5.033733	4.146578	3.089753	5.191529	5.654695	4.953178	2.911356	3.109043	5.467659	6.384621	4.911428	2.815905	-0.707447	2.892346	5.869604	6.695213	4.888311	2.883013	0.707447	2.844575	5.293825	6.470016	3.555670	0.659708	1.122853	2.109736	-2.394980	-0.776160	-4.405658
